wavelength, flux 
380.000,  0.441 
380.100,  0.517 
380.200,  0.578 
380.300,  0.648 
380.400,  0.701 
380.500,  0.731 
380.600,  0.798 
380.700,  0.793 
380.800,  0.884 
380.900,  0.902 
381.000,  0.945 
381.100,  0.954 
381.200,  0.985 
381.300,  0.951 
381.400,  0.973 
381.500,  0.964 
381.600,  0.939 
381.700,  1.019 
381.800,  0.982 
381.900,  1.000 
382.000,  0.920 
382.100,  0.921 
382.200,  0.907 
382.300,  0.909 
382.400,  0.819 
382.500,  0.791 
382.600,  0.752 
382.700,  0.741 
382.800,  0.669 
382.900,  0.605 
383.000,  0.596 
383.100,  0.541 
383.200,  0.447 
383.300,  0.412 
383.400,  0.340 
383.500,  0.251 
383.600,  0.278 
383.700,  0.358 
383.800,  0.393 
383.900,  0.476 
384.000,  0.521 
384.100,  0.562 
384.200,  0.641 
384.300,  0.660 
384.400,  0.717 
384.500,  0.741 
384.600,  0.779 
384.700,  0.806 
384.800,  0.841 
384.900,  0.874 
385.000,  0.832 
385.100,  0.912 
385.200,  0.937 
385.300,  0.940 
385.400,  0.910 
385.500,  0.973 
385.600,  0.838 
385.700,  0.981 
385.800,  0.956 
385.900,  0.941 
386.000,  0.922 
386.100,  0.985 
386.200,  0.986 
386.300,  0.901 
386.400,  0.957 
386.500,  0.965 
386.600,  0.914 
386.700,  0.910 
386.800,  0.952 
386.900,  0.940 
387.000,  0.910 
387.100,  0.898 
387.200,  0.878 
387.300,  0.823 
387.400,  0.847 
387.500,  0.836 
387.600,  0.812 
387.700,  0.785 
387.800,  0.654 
387.900,  0.651 
388.000,  0.681 
388.100,  0.643 
388.200,  0.589 
388.300,  0.548 
388.400,  0.507 
388.500,  0.455 
388.600,  0.391 
388.700,  0.345 
388.800,  0.288 
388.900,  0.206 
389.000,  0.281 
389.100,  0.342 
389.200,  0.396 
389.300,  0.443 
389.400,  0.492 
389.500,  0.542 
389.600,  0.556 
389.700,  0.628 
389.800,  0.639 
389.900,  0.686 
390.000,  0.686 
390.100,  0.705 
390.200,  0.791 
390.300,  0.757 
390.400,  0.755 
390.500,  0.822 
390.600,  0.783 
390.700,  0.869 
390.800,  0.897 
390.900,  0.906 
391.000,  0.926 
391.100,  0.934 
391.200,  0.945 
391.300,  0.913 
391.400,  0.894 
391.500,  0.957 
391.600,  0.954 
391.700,  0.957 
391.800,  0.953 
391.900,  0.932 
392.000,  0.939 
392.100,  0.965 
392.200,  0.989 
392.300,  0.940 
392.400,  0.994 
392.500,  0.989 
392.600,  0.954 
392.700,  0.995 
392.800,  0.923 
392.900,  0.983 
393.000,  0.923 
393.100,  0.982 
393.200,  0.947 
393.300,  0.901 
393.400,  0.700 
393.500,  0.973 
393.600,  0.926 
393.700,  0.976 
393.800,  0.875 
393.900,  0.932 
394.000,  0.970 
394.100,  0.948 
394.200,  0.945 
394.300,  0.938 
394.400,  0.858 
394.500,  0.898 
394.600,  0.935 
394.700,  0.884 
394.800,  0.871 
394.900,  0.874 
395.000,  0.865 
395.100,  0.858 
395.200,  0.837 
395.300,  0.826 
395.400,  0.823 
395.500,  0.793 
395.600,  0.764 
395.700,  0.708 
395.800,  0.720 
395.900,  0.699 
396.000,  0.667 
396.100,  0.607 
396.200,  0.569 
396.300,  0.554 
396.400,  0.516 
396.500,  0.472 
396.600,  0.427 
396.700,  0.380 
396.800,  0.311 
396.900,  0.265 
397.000,  0.197 
397.100,  0.271 
397.200,  0.328 
397.300,  0.379 
397.400,  0.414 
397.500,  0.468 
397.600,  0.513 
397.700,  0.549 
397.800,  0.582 
397.900,  0.624 
398.000,  0.658 
398.100,  0.692 
398.200,  0.688 
398.300,  0.738 
398.400,  0.756 
398.500,  0.789 
398.600,  0.803 
398.700,  0.818 
398.800,  0.844 
398.900,  0.866 
399.000,  0.871 
399.100,  0.881 
399.200,  0.902 
399.300,  0.915 
399.400,  0.892 
399.500,  0.917 
399.600,  0.924 
399.700,  0.900 
399.800,  0.944 
399.900,  0.931 
400.000,  0.958 
400.100,  0.965 
400.200,  0.909 
400.300,  0.924 
400.400,  0.963 
400.500,  0.921 
400.600,  0.947 
400.700,  0.968 
400.800,  0.981 
400.900,  0.986 
401.000,  0.954 
401.100,  0.985 
401.200,  0.917 
401.300,  0.979 
401.400,  0.977 
401.500,  0.960 
401.600,  0.973 
401.700,  0.988 
401.800,  0.976 
401.900,  0.995 
402.000,  0.990 
402.100,  0.995 
402.200,  0.959 
402.300,  0.965 
402.400,  0.980 
402.500,  0.914 
402.600,  0.989 
402.700,  0.995 
402.800,  0.930 
402.900,  0.976 
403.000,  0.966 
403.100,  0.936 
403.200,  0.973 
403.300,  0.929 
403.400,  0.976 
403.500,  0.982 
403.600,  0.941 
403.700,  0.990 
403.800,  0.982 
403.900,  0.990 
404.000,  0.993 
404.100,  0.969 
404.200,  0.983 
404.300,  0.994 
404.400,  0.972 
404.500,  0.986 
404.600,  0.899 
404.700,  0.990 
404.800,  0.993 
404.900,  0.948 
405.000,  0.990 
405.100,  0.981 
405.200,  0.961 
405.300,  0.982 
405.400,  0.925 
405.500,  0.961 
405.600,  0.974 
405.700,  0.961 
405.800,  0.946 
405.900,  0.970 
406.000,  0.975 
406.100,  0.972 
406.200,  0.949 
406.300,  0.946 
406.400,  0.894 
406.500,  0.958 
406.600,  0.964 
406.700,  0.895 
406.800,  0.943 
406.900,  0.948 
407.000,  0.941 
407.100,  0.902 
407.200,  0.876 
407.300,  0.926 
407.400,  0.913 
407.500,  0.895 
407.600,  0.902 
407.700,  0.854 
407.800,  0.834 
407.900,  0.884 
408.000,  0.861 
408.100,  0.866 
408.200,  0.841 
408.300,  0.836 
408.400,  0.810 
408.500,  0.783 
408.600,  0.782 
408.700,  0.765 
408.800,  0.743 
408.900,  0.719 
409.000,  0.695 
409.100,  0.667 
409.200,  0.639 
409.300,  0.607 
409.400,  0.575 
409.500,  0.540 
409.600,  0.500 
409.700,  0.461 
409.800,  0.417 
409.900,  0.374 
410.000,  0.326 
410.100,  0.265 
410.200,  0.209 
410.300,  0.301 
410.400,  0.353 
410.500,  0.399 
410.600,  0.444 
410.700,  0.484 
410.800,  0.523 
410.900,  0.559 
411.000,  0.589 
411.100,  0.610 
411.200,  0.654 
411.300,  0.672 
411.400,  0.713 
411.500,  0.734 
411.600,  0.762 
411.700,  0.783 
411.800,  0.794 
411.900,  0.791 
412.000,  0.824 
412.100,  0.849 
412.200,  0.864 
412.300,  0.855 
412.400,  0.886 
412.500,  0.891 
412.600,  0.887 
412.700,  0.913 
412.800,  0.826 
412.900,  0.882 
413.000,  0.931 
413.100,  0.869 
413.200,  0.883 
413.300,  0.929 
413.400,  0.945 
413.500,  0.932 
413.600,  0.957 
413.700,  0.932 
413.800,  0.955 
413.900,  0.972 
414.000,  0.965 
414.100,  0.976 
414.200,  0.968 
414.300,  0.946 
414.400,  0.919 
414.500,  0.980 
414.600,  0.955 
414.700,  0.979 
414.800,  0.968 
414.900,  0.961 
415.000,  0.975 
415.100,  0.974 
415.200,  0.984 
415.300,  0.988 
415.400,  0.936 
415.500,  0.948 
415.600,  0.987 
415.700,  0.962 
415.800,  0.966 
415.900,  0.981 
416.000,  0.995 
416.100,  0.977 
416.200,  0.970 
416.300,  0.987 
416.400,  0.938 
416.500,  0.994 
416.600,  0.999 
416.700,  0.954 
416.800,  0.994 
416.900,  0.999 
417.000,  0.996 
417.100,  0.986 
417.200,  0.924 
417.300,  0.929 
417.400,  0.942 
417.500,  1.000 
417.600,  0.957 
417.700,  0.978 
417.800,  0.943 
417.900,  0.931 
418.000,  0.997 
418.100,  0.990 
418.200,  0.957 
418.300,  0.988 
418.400,  0.988 
418.500,  0.971 
418.600,  1.003 
418.700,  0.958 
418.800,  0.950 
418.900,  0.984 
419.000,  0.987 
419.100,  0.969 
419.200,  0.991 
419.300,  1.001 
419.400,  1.000 
419.500,  0.972 
419.600,  0.964 
419.700,  1.000 
419.800,  0.938 
419.900,  0.932 
420.000,  0.994 
420.100,  0.989 
420.200,  0.937 
420.300,  0.996 
420.400,  0.980 
420.500,  0.973 
420.600,  0.987 
420.700,  0.984 
420.800,  1.004 
420.900,  0.993 
421.000,  0.967 
421.100,  1.002 
421.200,  0.999 
421.300,  1.001 
421.400,  0.992 
421.500,  0.977 
421.600,  0.939 
421.700,  0.985 
421.800,  0.979 
421.900,  0.971 
422.000,  0.990 
422.100,  1.003 
422.200,  0.973 
422.300,  0.992 
422.400,  0.980 
422.500,  0.959 
422.600,  0.978 
422.700,  0.865 
422.800,  0.993 
422.900,  0.998 
423.000,  0.997 
423.100,  1.000 
423.200,  0.999 
423.300,  0.909 
423.400,  0.962 
423.500,  0.992 
423.600,  0.947 
423.700,  1.000 
423.800,  0.989 
423.900,  0.955 
424.000,  0.984 
424.100,  0.997 
424.200,  0.953 
424.300,  0.992 
424.400,  0.996 
424.500,  0.975 
424.600,  0.992 
424.700,  0.890 
424.800,  0.992 
424.900,  0.999 
425.000,  0.952 
425.100,  0.942 
425.200,  0.991 
425.300,  0.971 
425.400,  0.954 
425.500,  0.987 
425.600,  0.994 
425.700,  0.998 
425.800,  0.967 
425.900,  0.991 
426.000,  0.938 
426.100,  0.973 
426.200,  0.958 
426.300,  0.974 
426.400,  0.987 
426.500,  0.992 
426.600,  0.992 
426.700,  0.991 
426.800,  0.989 
426.900,  0.969 
427.000,  0.991 
427.100,  0.947 
427.200,  0.922 
427.300,  0.959 
427.400,  0.988 
427.500,  0.955 
427.600,  0.970 
427.700,  0.986 
427.800,  0.968 
427.900,  0.986 
428.000,  0.985 
428.100,  0.984 
428.200,  0.951 
428.300,  0.964 
428.400,  0.964 
428.500,  0.971 
428.600,  0.977 
428.700,  0.979 
428.800,  0.941 
428.900,  0.964 
429.000,  0.872 
429.100,  0.978 
429.200,  0.976 
429.300,  0.978 
429.400,  0.910 
429.500,  0.963 
429.600,  0.966 
429.700,  0.941 
429.800,  0.965 
429.900,  0.913 
430.000,  0.891 
430.100,  0.955 
430.200,  0.897 
430.300,  0.880 
430.400,  0.954 
430.500,  0.939 
430.600,  0.929 
430.700,  0.938 
430.800,  0.838 
430.900,  0.926 
431.000,  0.922 
431.100,  0.927 
431.200,  0.922 
431.300,  0.863 
431.400,  0.838 
431.500,  0.831 
431.600,  0.894 
431.700,  0.869 
431.800,  0.874 
431.900,  0.848 
432.000,  0.851 
432.100,  0.777 
432.200,  0.824 
432.300,  0.812 
432.400,  0.795 
432.500,  0.743 
432.600,  0.707 
432.700,  0.727 
432.800,  0.711 
432.900,  0.692 
433.000,  0.656 
433.100,  0.629 
433.200,  0.610 
433.300,  0.578 
433.400,  0.546 
433.500,  0.512 
433.600,  0.474 
433.700,  0.432 
433.800,  0.380 
433.900,  0.342 
434.000,  0.253 
434.100,  0.264 
434.200,  0.346 
434.300,  0.394 
434.400,  0.431 
434.500,  0.478 
434.600,  0.517 
434.700,  0.552 
434.800,  0.584 
434.900,  0.614 
435.000,  0.646 
435.100,  0.671 
435.200,  0.637 
435.300,  0.714 
435.400,  0.742 
435.500,  0.761 
435.600,  0.786 
435.700,  0.802 
435.800,  0.811 
435.900,  0.832 
436.000,  0.843 
436.100,  0.855 
436.200,  0.866 
436.300,  0.872 
436.400,  0.893 
436.500,  0.900 
436.600,  0.908 
436.700,  0.917 
436.800,  0.868 
436.900,  0.922 
437.000,  0.921 
437.100,  0.930 
437.200,  0.939 
437.300,  0.949 
437.400,  0.921 
437.500,  0.900 
437.600,  0.953 
437.700,  0.959 
437.800,  0.966 
437.900,  0.969 
438.000,  0.966 
438.100,  0.974 
438.200,  0.976 
438.300,  0.953 
438.400,  0.896 
438.500,  0.887 
438.600,  0.982 
438.700,  0.952 
438.800,  0.959 
438.900,  0.988 
439.000,  0.972 
439.100,  0.930 
439.200,  0.989 
439.300,  0.990 
439.400,  0.968 
439.500,  0.918 
439.600,  0.958 
439.700,  0.997 
439.800,  0.964 
439.900,  0.999 
440.000,  0.905 
440.100,  0.988 
440.200,  0.989 
440.300,  0.990 
440.400,  0.999 
440.500,  0.942 
440.600,  1.002 
440.700,  1.001 
440.800,  0.985 
440.900,  0.980 
441.000,  0.994 
441.100,  0.971 
441.200,  0.981 
441.300,  1.002 
441.400,  0.986 
441.500,  0.950 
441.600,  0.976 
441.700,  0.946 
441.800,  0.920 
441.900,  0.999 
442.000,  1.001 
442.100,  0.995 
442.200,  0.972 
442.300,  0.986 
442.400,  0.993 
442.500,  0.987 
442.600,  0.999 
442.700,  0.991 
442.800,  0.981 
442.900,  1.002 
443.000,  0.996 
443.100,  0.991 
443.200,  0.996 
443.300,  0.986 
443.400,  0.967 
443.500,  0.967 
443.600,  0.978 
443.700,  0.995 
443.800,  1.000 
443.900,  1.001 
444.000,  1.000 
444.100,  0.999 
444.200,  0.970 
444.300,  0.982 
444.400,  0.923 
444.500,  0.985 
444.600,  0.992 
444.700,  0.999 
444.800,  0.988 
444.900,  1.000 
445.000,  0.963 
445.100,  0.979 
445.200,  0.985 
445.300,  0.997 
445.400,  0.991 
445.500,  0.934 
445.600,  0.981 
445.700,  0.990 
445.800,  0.991 
445.900,  0.975 
446.000,  1.000 
446.100,  0.985 
446.200,  0.970 
446.300,  0.999 
446.400,  0.975 
446.500,  0.989 
446.600,  0.990 
446.700,  0.973 
446.800,  0.966 
446.900,  0.932 
447.000,  0.992 
447.100,  0.967 
447.200,  0.979 
447.300,  0.996 
447.400,  0.994 
447.500,  0.998 
447.600,  0.951 
447.700,  1.000 
447.800,  0.999 
447.900,  0.987 
448.000,  0.984 
448.100,  0.699 
448.200,  0.955 
448.300,  0.989 
448.400,  0.983 
448.500,  0.998 
448.600,  0.992 
448.700,  0.995 
448.800,  0.959 
448.900,  0.968 
449.000,  0.995 
449.100,  0.944 
449.200,  0.996 
449.300,  0.994 
449.400,  0.990 
449.500,  0.978 
449.600,  0.996 
449.700,  0.990 
449.800,  0.996 
449.900,  0.993 
450.000,  0.992 
450.100,  0.928 
450.200,  0.998 
450.300,  0.999 
450.400,  0.997 
450.500,  0.999 
450.600,  0.998 
450.700,  0.994 
450.800,  0.936 
450.900,  0.998 
451.000,  0.998 
451.100,  0.997 
451.200,  0.994 
451.300,  0.997 
451.400,  0.997 
451.500,  0.938 
451.600,  0.991 
451.700,  0.996 
451.800,  0.979 
451.900,  0.997 
452.000,  0.961 
452.100,  0.998 
452.200,  0.995 
452.300,  0.929 
452.400,  0.997 
452.500,  0.939 
452.600,  0.995 
452.700,  0.993 
452.800,  0.992 
452.900,  0.943 
453.000,  0.988 
453.100,  0.985 
453.200,  0.993 
453.300,  0.991 
453.400,  0.883 
453.500,  0.993 
453.600,  0.993 
453.700,  0.996 
453.800,  0.996 
453.900,  0.997 
454.000,  0.996 
454.100,  0.977 
454.200,  0.967 
454.300,  0.999 
454.400,  0.989 
454.500,  0.990 
454.600,  0.995 
454.700,  0.995 
454.800,  0.987 
454.900,  0.916 
455.000,  0.886 
455.100,  0.999 
455.200,  0.996 
455.300,  0.998 
455.400,  0.991 
455.500,  0.960 
455.600,  0.921 
455.700,  0.998 
455.800,  0.998 
455.900,  0.931 
456.000,  0.998 
456.100,  0.998 
456.200,  0.999 
456.300,  0.999 
456.400,  0.932 
456.500,  0.992 
456.600,  0.993 
456.700,  0.998 
456.800,  0.980 
456.900,  0.995 
457.000,  0.998 
457.100,  0.996 
457.200,  0.920 
457.300,  0.998 
457.400,  0.998 
457.500,  0.997 
457.600,  0.949 
457.700,  0.998 
457.800,  0.993 
457.900,  0.986 
458.000,  0.962 
458.100,  0.977 
458.200,  0.994 
458.300,  0.952 
458.400,  0.912 
458.500,  0.997 
458.600,  0.974 
458.700,  0.996 
458.800,  0.939 
458.900,  0.991 
459.000,  0.954 
459.100,  0.992 
459.200,  0.953 
459.300,  0.992 
459.400,  0.995 
459.500,  0.995 
459.600,  0.967 
459.700,  0.998 
459.800,  0.992 
459.900,  0.994 
460.000,  0.992 
460.100,  0.983 
460.200,  0.988 
460.300,  0.991 
460.400,  0.999 
460.500,  0.985 
460.600,  0.998 
460.700,  0.998 
460.800,  0.995 
460.900,  0.992 
461.000,  0.998 
461.100,  0.979 
461.200,  0.993 
461.300,  0.994 
461.400,  0.992 
461.500,  0.998 
461.600,  0.989 
461.700,  0.963 
461.800,  0.994 
461.900,  0.935 
462.000,  0.980 
462.100,  0.971 
462.200,  0.993 
462.300,  0.997 
462.400,  0.999 
462.500,  0.994 
462.600,  0.981 
462.700,  0.993 
462.800,  0.998 
462.900,  0.929 
463.000,  0.997 
463.100,  0.998 
463.200,  0.996 
463.300,  0.997 
463.400,  0.939 
463.500,  0.961 
463.600,  0.989 
463.700,  0.996 
463.800,  0.985 
463.900,  0.999 
464.000,  0.997 
464.100,  0.997 
464.200,  0.997 
464.300,  0.994 
464.400,  0.998 
464.500,  0.993 
464.600,  0.993 
464.700,  0.992 
464.800,  0.995 
464.900,  0.982 
465.000,  0.999 
465.100,  0.998 
465.200,  0.994 
465.300,  0.998 
465.400,  0.997 
465.500,  0.984 
465.600,  0.994 
465.700,  0.959 
465.800,  0.999 
465.900,  0.997 
466.000,  0.998 
466.100,  0.996 
466.200,  0.997 
466.300,  0.984 
466.400,  0.993 
466.500,  0.992 
466.600,  0.994 
466.700,  0.953 
466.800,  0.986 
466.900,  0.990 
467.000,  0.963 
467.100,  0.997 
467.200,  0.999 
467.300,  0.989 
467.400,  0.997 
467.500,  0.996 
467.600,  0.997 
467.700,  0.998 
467.800,  0.997 
467.900,  0.971 
468.000,  0.992 
468.100,  0.996 
468.200,  0.996 
468.300,  0.998 
468.400,  0.999 
468.500,  0.994 
468.600,  0.991 
468.700,  0.999 
468.800,  0.999 
468.900,  0.998 
469.000,  0.993 
469.100,  0.981 
469.200,  0.996 
469.300,  0.998 
469.400,  0.996 
469.500,  0.996 
469.600,  0.996 
469.700,  0.999 
469.800,  0.993 
469.900,  0.993 
470.000,  0.999 
470.100,  0.997 
470.200,  0.992 
470.300,  0.940 
470.400,  0.993 
470.500,  0.994 
470.600,  0.998 
470.700,  0.987 
470.800,  0.997 
470.900,  0.981 
471.000,  0.994 
471.100,  0.997 
471.200,  1.000 
471.300,  0.996 
471.400,  0.983 
471.500,  0.998 
471.600,  0.996 
471.700,  0.978 
471.800,  1.001 
471.900,  1.002 
472.000,  0.998 
472.100,  0.970 
472.200,  0.998 
472.300,  1.001 
472.400,  1.004 
472.500,  1.005 
472.600,  1.005 
472.700,  0.996 
472.800,  1.000 
472.900,  0.998 
473.000,  0.996 
473.100,  0.975 
473.200,  0.992 
473.300,  1.005 
473.400,  0.996 
473.500,  1.006 
473.600,  0.998 
473.700,  0.991 
473.800,  1.001 
473.900,  1.001 
474.000,  0.992 
474.100,  1.008 
474.200,  1.005 
474.300,  1.006 
474.400,  1.011 
474.500,  1.008 
474.600,  1.003 
474.700,  1.012 
474.800,  1.010 
474.900,  1.013 
475.000,  1.012 
475.100,  1.015 
475.200,  1.009 
475.300,  1.015 
475.400,  1.007 
475.500,  1.014 
475.600,  1.000 
475.700,  1.012 
475.800,  1.013 
475.900,  1.015 
476.000,  1.016 
476.100,  1.016 
476.200,  1.000 
476.300,  1.007 
476.400,  1.003 
476.500,  1.007 
476.600,  1.011 
476.700,  1.007 
476.800,  1.015 
476.900,  1.018 
477.000,  1.012 
477.100,  1.020 
477.200,  1.004 
477.300,  1.017 
477.400,  1.021 
477.500,  1.021 
477.600,  0.994 
477.700,  1.022 
477.800,  1.022 
477.900,  1.020 
478.000,  0.989 
478.100,  1.019 
478.200,  1.021 
478.300,  1.013 
478.400,  1.018 
478.500,  1.021 
478.600,  1.016 
478.700,  1.014 
478.800,  1.023 
478.900,  1.013 
479.000,  1.012 
479.100,  1.023 
479.200,  1.014 
479.300,  1.019 
479.400,  1.023 
479.500,  1.023 
479.600,  1.020 
479.700,  1.022 
479.800,  1.014 
479.900,  1.016 
480.000,  1.000 
480.100,  1.016 
480.200,  1.017 
480.300,  1.017 
480.400,  1.021 
480.500,  0.975 
480.600,  1.018 
480.700,  1.013 
480.800,  1.017 
480.900,  1.017 
481.000,  1.015 
481.100,  1.009 
481.200,  0.997 
481.300,  1.011 
481.400,  1.014 
481.500,  1.001 
481.600,  1.009 
481.700,  1.006 
481.800,  0.999 
481.900,  1.007 
482.000,  1.001 
482.100,  1.000 
482.200,  1.001 
482.300,  0.992 
482.400,  0.940 
482.500,  0.987 
482.600,  0.984 
482.700,  0.979 
482.800,  0.979 
482.900,  0.969 
483.000,  0.968 
483.100,  0.958 
483.200,  0.958 
483.300,  0.946 
483.400,  0.943 
483.500,  0.936 
483.600,  0.910 
483.700,  0.919 
483.800,  0.911 
483.900,  0.899 
484.000,  0.880 
484.100,  0.879 
484.200,  0.866 
484.300,  0.852 
484.400,  0.840 
484.500,  0.825 
484.600,  0.809 
484.700,  0.791 
484.800,  0.747 
484.900,  0.752 
485.000,  0.733 
485.100,  0.708 
485.200,  0.685 
485.300,  0.659 
485.400,  0.632 
485.500,  0.599 
485.600,  0.565 
485.700,  0.536 
485.800,  0.499 
485.900,  0.459 
486.000,  0.411 
486.100,  0.283 
486.200,  0.351 
486.300,  0.430 
486.400,  0.469 
486.500,  0.512 
486.600,  0.546 
486.700,  0.581 
486.800,  0.612 
486.900,  0.640 
487.000,  0.667 
487.100,  0.673 
487.200,  0.702 
487.300,  0.736 
487.400,  0.746 
487.500,  0.776 
487.600,  0.767 
487.700,  0.805 
487.800,  0.795 
487.900,  0.838 
488.000,  0.852 
488.100,  0.863 
488.200,  0.871 
488.300,  0.884 
488.400,  0.885 
488.500,  0.891 
488.600,  0.906 
488.700,  0.911 
488.800,  0.925 
488.900,  0.924 
489.000,  0.938 
489.100,  0.883 
489.200,  0.928 
489.300,  0.947 
489.400,  0.947 
489.500,  0.959 
489.600,  0.962 
489.700,  0.965 
489.800,  0.970 
489.900,  0.972 
490.000,  0.964 
490.100,  0.976 
490.200,  0.967 
490.300,  0.957 
490.400,  0.976 
490.500,  0.984 
490.600,  0.985 
490.700,  0.986 
490.800,  0.984 
490.900,  0.988 
491.000,  0.976 
491.100,  0.954 
491.200,  0.984 
491.300,  0.985 
491.400,  0.991 
491.500,  0.989 
491.600,  0.994 
491.700,  0.989 
491.800,  0.986 
491.900,  0.953 
492.000,  0.964 
492.100,  0.969 
492.200,  0.988 
492.300,  0.996 
492.400,  0.912 
492.500,  0.984 
492.600,  0.992 
492.700,  0.995 
492.800,  0.999 
492.900,  0.999 
493.000,  0.997 
493.100,  0.999 
493.200,  0.980 
493.300,  0.993 
493.400,  0.987 
493.500,  0.996 
493.600,  0.993 
493.700,  0.994 
493.800,  0.995 
493.900,  0.978 
494.000,  0.981 
494.100,  0.995 
494.200,  0.996 
494.300,  0.997 
494.400,  0.998 
494.500,  1.000 
494.600,  0.991 
494.700,  0.999 
494.800,  0.996 
494.900,  0.992 
495.000,  0.998 
495.100,  1.000 
495.200,  0.994 
495.300,  0.996 
495.400,  0.997 
495.500,  0.996 
495.600,  1.000 
495.700,  0.962 
495.800,  0.938 
495.900,  1.000 
496.000,  1.002 
496.100,  1.002 
496.200,  1.001 
496.300,  0.999 
496.400,  1.002 
496.500,  1.000 
496.600,  0.991 
496.700,  1.001 
496.800,  0.992 
496.900,  1.000 
497.000,  0.995 
497.100,  0.997 
497.200,  1.002 
497.300,  0.992 
497.400,  1.001 
497.500,  1.001 
497.600,  1.001 
497.700,  0.994 
497.800,  1.000 
497.900,  0.990 
498.000,  0.990 
498.100,  0.995 
498.200,  0.979 
498.300,  0.965 
498.400,  0.964 
498.500,  0.982 
498.600,  0.993 
498.700,  1.001 
498.800,  1.001 
498.900,  0.988 
499.000,  0.998 
499.100,  0.983 
499.200,  1.001 
499.300,  0.978 
499.400,  0.981 
499.500,  1.002 
499.600,  1.000 
499.700,  0.999 
499.800,  1.000 
499.900,  0.995 
