wavelength, flux 
380.000,  0.483 
380.100,  0.569 
380.200,  0.649 
380.300,  0.720 
380.400,  0.782 
380.500,  0.832 
380.600,  0.878 
380.700,  0.910 
380.800,  0.943 
380.900,  0.966 
381.000,  0.983 
381.100,  0.998 
381.200,  1.008 
381.300,  1.015 
381.400,  0.995 
381.500,  1.017 
381.600,  1.005 
381.700,  1.021 
381.800,  1.020 
381.900,  1.015 
382.000,  0.985 
382.100,  0.991 
382.200,  0.973 
382.300,  0.968 
382.400,  0.944 
382.500,  0.885 
382.600,  0.877 
382.700,  0.843 
382.800,  0.804 
382.900,  0.748 
383.000,  0.703 
383.100,  0.636 
383.200,  0.550 
383.300,  0.481 
383.400,  0.398 
383.500,  0.297 
383.600,  0.324 
383.700,  0.416 
383.800,  0.483 
383.900,  0.573 
384.000,  0.641 
384.100,  0.701 
384.200,  0.760 
384.300,  0.805 
384.400,  0.843 
384.500,  0.856 
384.600,  0.898 
384.700,  0.922 
384.800,  0.916 
384.900,  0.951 
385.000,  0.930 
385.100,  0.971 
385.200,  0.982 
385.300,  0.987 
385.400,  0.931 
385.500,  0.995 
385.600,  0.893 
385.700,  0.998 
385.800,  0.999 
385.900,  0.999 
386.000,  0.984 
386.100,  0.997 
386.200,  0.990 
386.300,  0.912 
386.400,  0.987 
386.500,  0.994 
386.600,  0.978 
386.700,  0.987 
386.800,  0.986 
386.900,  0.983 
387.000,  0.976 
387.100,  0.971 
387.200,  0.962 
387.300,  0.926 
387.400,  0.945 
387.500,  0.933 
387.600,  0.918 
387.700,  0.900 
387.800,  0.874 
387.900,  0.848 
388.000,  0.824 
388.100,  0.789 
388.200,  0.745 
388.300,  0.697 
388.400,  0.641 
388.500,  0.577 
388.600,  0.506 
388.700,  0.433 
388.800,  0.354 
388.900,  0.266 
389.000,  0.346 
389.100,  0.426 
389.200,  0.500 
389.300,  0.570 
389.400,  0.634 
389.500,  0.690 
389.600,  0.737 
389.700,  0.783 
389.800,  0.815 
389.900,  0.843 
390.000,  0.862 
390.100,  0.829 
390.200,  0.911 
390.300,  0.918 
390.400,  0.926 
390.500,  0.941 
390.600,  0.917 
390.700,  0.962 
390.800,  0.965 
390.900,  0.969 
391.000,  0.979 
391.100,  0.981 
391.200,  0.985 
391.300,  0.963 
391.400,  0.970 
391.500,  0.986 
391.600,  0.993 
391.700,  0.994 
391.800,  0.991 
391.900,  0.974 
392.000,  0.996 
392.100,  0.969 
392.200,  0.996 
392.300,  0.991 
392.400,  0.999 
392.500,  0.994 
392.600,  0.999 
392.700,  0.999 
392.800,  0.998 
392.900,  0.999 
393.000,  0.984 
393.100,  0.999 
393.200,  0.994 
393.300,  0.989 
393.400,  0.880 
393.500,  0.998 
393.600,  0.972 
393.700,  0.996 
393.800,  0.974 
393.900,  0.967 
394.000,  0.993 
394.100,  0.990 
394.200,  0.988 
394.300,  0.987 
394.400,  0.967 
394.500,  0.972 
394.600,  0.980 
394.700,  0.968 
394.800,  0.968 
394.900,  0.967 
395.000,  0.963 
395.100,  0.957 
395.200,  0.948 
395.300,  0.943 
395.400,  0.928 
395.500,  0.921 
395.600,  0.910 
395.700,  0.892 
395.800,  0.879 
395.900,  0.858 
396.000,  0.833 
396.100,  0.791 
396.200,  0.759 
396.300,  0.729 
396.400,  0.683 
396.500,  0.625 
396.600,  0.569 
396.700,  0.504 
396.800,  0.419 
396.900,  0.352 
397.000,  0.267 
397.100,  0.348 
397.200,  0.424 
397.300,  0.495 
397.400,  0.553 
397.500,  0.620 
397.600,  0.677 
397.700,  0.724 
397.800,  0.764 
397.900,  0.797 
398.000,  0.827 
398.100,  0.855 
398.200,  0.862 
398.300,  0.892 
398.400,  0.907 
398.500,  0.920 
398.600,  0.929 
398.700,  0.939 
398.800,  0.949 
398.900,  0.955 
399.000,  0.961 
399.100,  0.963 
399.200,  0.961 
399.300,  0.973 
399.400,  0.974 
399.500,  0.976 
399.600,  0.980 
399.700,  0.981 
399.800,  0.979 
399.900,  0.985 
400.000,  0.989 
400.100,  0.991 
400.200,  0.959 
400.300,  0.945 
400.400,  0.991 
400.500,  0.989 
400.600,  0.990 
400.700,  0.995 
400.800,  0.993 
400.900,  0.996 
401.000,  0.996 
401.100,  0.997 
401.200,  0.984 
401.300,  0.990 
401.400,  0.998 
401.500,  0.989 
401.600,  0.990 
401.700,  0.998 
401.800,  0.998 
401.900,  0.999 
402.000,  0.999 
402.100,  0.999 
402.200,  0.997 
402.300,  0.996 
402.400,  0.993 
402.500,  0.974 
402.600,  0.997 
402.700,  0.998 
402.800,  0.957 
402.900,  0.980 
403.000,  0.998 
403.100,  0.995 
403.200,  0.997 
403.300,  0.983 
403.400,  0.998 
403.500,  0.983 
403.600,  0.996 
403.700,  1.000 
403.800,  0.993 
403.900,  1.000 
404.000,  0.999 
404.100,  0.999 
404.200,  0.998 
404.300,  0.999 
404.400,  0.989 
404.500,  0.999 
404.600,  0.977 
404.700,  0.998 
404.800,  0.999 
404.900,  0.980 
405.000,  0.998 
405.100,  0.996 
405.200,  0.992 
405.300,  0.997 
405.400,  0.988 
405.500,  0.997 
405.600,  0.996 
405.700,  0.986 
405.800,  0.992 
405.900,  0.996 
406.000,  0.995 
406.100,  0.994 
406.200,  0.986 
406.300,  0.992 
406.400,  0.978 
406.500,  0.992 
406.600,  0.992 
406.700,  0.964 
406.800,  0.989 
406.900,  0.988 
407.000,  0.983 
407.100,  0.979 
407.200,  0.971 
407.300,  0.978 
407.400,  0.980 
407.500,  0.964 
407.600,  0.967 
407.700,  0.958 
407.800,  0.959 
407.900,  0.967 
408.000,  0.962 
408.100,  0.958 
408.200,  0.948 
408.300,  0.947 
408.400,  0.939 
408.500,  0.930 
408.600,  0.919 
408.700,  0.910 
408.800,  0.896 
408.900,  0.880 
409.000,  0.862 
409.100,  0.841 
409.200,  0.816 
409.300,  0.785 
409.400,  0.751 
409.500,  0.711 
409.600,  0.664 
409.700,  0.612 
409.800,  0.553 
409.900,  0.490 
410.000,  0.422 
410.100,  0.342 
410.200,  0.287 
410.300,  0.389 
410.400,  0.460 
410.500,  0.526 
410.600,  0.587 
410.700,  0.643 
410.800,  0.693 
410.900,  0.736 
411.000,  0.773 
411.100,  0.797 
411.200,  0.830 
411.300,  0.853 
411.400,  0.877 
411.500,  0.894 
411.600,  0.908 
411.700,  0.920 
411.800,  0.930 
411.900,  0.936 
412.000,  0.944 
412.100,  0.953 
412.200,  0.960 
412.300,  0.956 
412.400,  0.970 
412.500,  0.971 
412.600,  0.976 
412.700,  0.979 
412.800,  0.891 
412.900,  0.971 
413.000,  0.985 
413.100,  0.889 
413.200,  0.983 
413.300,  0.988 
413.400,  0.993 
413.500,  0.994 
413.600,  0.995 
413.700,  0.994 
413.800,  0.993 
413.900,  0.999 
414.000,  0.998 
414.100,  1.000 
414.200,  0.995 
414.300,  0.999 
414.400,  0.996 
414.500,  0.996 
414.600,  0.995 
414.700,  0.996 
414.800,  1.002 
414.900,  1.002 
415.000,  0.999 
415.100,  0.996 
415.200,  1.003 
415.300,  0.996 
415.400,  1.001 
415.500,  1.002 
415.600,  1.004 
415.700,  1.003 
415.800,  1.001 
415.900,  1.004 
416.000,  1.004 
416.100,  1.001 
416.200,  1.002 
416.300,  0.993 
416.400,  0.981 
416.500,  1.002 
416.600,  1.005 
416.700,  1.000 
416.800,  1.002 
416.900,  1.004 
417.000,  1.004 
417.100,  1.003 
417.200,  0.985 
417.300,  0.969 
417.400,  0.984 
417.500,  1.004 
417.600,  1.002 
417.700,  1.004 
417.800,  0.978 
417.900,  0.966 
418.000,  1.003 
418.100,  1.002 
418.200,  1.001 
418.300,  0.999 
418.400,  1.001 
418.500,  1.002 
418.600,  1.003 
418.700,  0.996 
418.800,  0.995 
418.900,  1.002 
419.000,  0.999 
419.100,  0.988 
419.200,  1.002 
419.300,  1.000 
419.400,  1.000 
419.500,  1.002 
419.600,  1.002 
419.700,  1.003 
419.800,  0.991 
419.900,  0.995 
420.000,  0.997 
420.100,  0.983 
420.200,  0.997 
420.300,  0.998 
420.400,  1.001 
420.500,  1.000 
420.600,  0.997 
420.700,  1.001 
420.800,  1.002 
420.900,  1.003 
421.000,  1.000 
421.100,  1.003 
421.200,  1.002 
421.300,  1.001 
421.400,  1.000 
421.500,  0.999 
421.600,  0.995 
421.700,  0.998 
421.800,  1.001 
421.900,  1.000 
422.000,  1.002 
422.100,  1.001 
422.200,  1.000 
422.300,  0.998 
422.400,  1.001 
422.500,  0.996 
422.600,  1.001 
422.700,  0.993 
422.800,  1.000 
422.900,  1.001 
423.000,  1.000 
423.100,  0.998 
423.200,  1.001 
423.300,  0.929 
423.400,  1.000 
423.500,  0.997 
423.600,  0.993 
423.700,  0.998 
423.800,  0.997 
423.900,  0.990 
424.000,  0.999 
424.100,  1.000 
424.200,  0.968 
424.300,  0.994 
424.400,  1.000 
424.500,  0.997 
424.600,  0.999 
424.700,  0.983 
424.800,  1.000 
424.900,  1.000 
425.000,  0.993 
425.100,  0.995 
425.200,  0.997 
425.300,  0.990 
425.400,  0.997 
425.500,  0.995 
425.600,  0.998 
425.700,  0.999 
425.800,  0.989 
425.900,  0.992 
426.000,  0.994 
426.100,  0.996 
426.200,  0.987 
426.300,  0.998 
426.400,  0.994 
426.500,  0.999 
426.600,  0.997 
426.700,  0.954 
426.800,  0.994 
426.900,  0.994 
427.000,  0.996 
427.100,  0.995 
427.200,  0.982 
427.300,  0.982 
427.400,  0.999 
427.500,  0.997 
427.600,  0.991 
427.700,  0.998 
427.800,  0.991 
427.900,  0.995 
428.000,  0.998 
428.100,  0.997 
428.200,  0.996 
428.300,  0.996 
428.400,  0.991 
428.500,  0.996 
428.600,  0.991 
428.700,  0.997 
428.800,  0.993 
428.900,  0.996 
429.000,  0.975 
429.100,  0.995 
429.200,  0.995 
429.300,  0.995 
429.400,  0.971 
429.500,  0.994 
429.600,  0.992 
429.700,  0.980 
429.800,  0.993 
429.900,  0.990 
430.000,  0.958 
430.100,  0.991 
430.200,  0.981 
430.300,  0.948 
430.400,  0.989 
430.500,  0.988 
430.600,  0.987 
430.700,  0.983 
430.800,  0.957 
430.900,  0.984 
431.000,  0.982 
431.100,  0.980 
431.200,  0.979 
431.300,  0.961 
431.400,  0.958 
431.500,  0.957 
431.600,  0.969 
431.700,  0.964 
431.800,  0.960 
431.900,  0.953 
432.000,  0.949 
432.100,  0.938 
432.200,  0.940 
432.300,  0.932 
432.400,  0.923 
432.500,  0.906 
432.600,  0.886 
432.700,  0.884 
432.800,  0.871 
432.900,  0.852 
433.000,  0.829 
433.100,  0.804 
433.200,  0.773 
433.300,  0.741 
433.400,  0.702 
433.500,  0.658 
433.600,  0.609 
433.700,  0.554 
433.800,  0.493 
433.900,  0.430 
434.000,  0.333 
434.100,  0.343 
434.200,  0.436 
434.300,  0.500 
434.400,  0.558 
434.500,  0.615 
434.600,  0.664 
434.700,  0.709 
434.800,  0.747 
434.900,  0.781 
435.000,  0.811 
435.100,  0.836 
435.200,  0.818 
435.300,  0.876 
435.400,  0.887 
435.500,  0.907 
435.600,  0.919 
435.700,  0.928 
435.800,  0.927 
435.900,  0.945 
436.000,  0.951 
436.100,  0.951 
436.200,  0.958 
436.300,  0.965 
436.400,  0.971 
436.500,  0.974 
436.600,  0.977 
436.700,  0.980 
436.800,  0.967 
436.900,  0.982 
437.000,  0.986 
437.100,  0.987 
437.200,  0.989 
437.300,  0.992 
437.400,  0.991 
437.500,  0.991 
437.600,  0.996 
437.700,  0.988 
437.800,  0.997 
437.900,  0.999 
438.000,  0.998 
438.100,  1.000 
438.200,  1.001 
438.300,  0.996 
438.400,  0.974 
438.500,  0.925 
438.600,  1.001 
438.700,  0.997 
438.800,  1.002 
438.900,  1.003 
439.000,  0.990 
439.100,  0.955 
439.200,  1.003 
439.300,  1.003 
439.400,  1.002 
439.500,  0.969 
439.600,  0.997 
439.700,  1.004 
439.800,  1.002 
439.900,  1.004 
440.000,  0.990 
440.100,  1.004 
440.200,  1.004 
440.300,  0.997 
440.400,  1.004 
440.500,  0.999 
440.600,  1.005 
440.700,  1.003 
440.800,  1.004 
440.900,  1.003 
441.000,  1.004 
441.100,  0.999 
441.200,  1.003 
441.300,  1.005 
441.400,  0.999 
441.500,  1.001 
441.600,  1.003 
441.700,  0.964 
441.800,  0.991 
441.900,  1.001 
442.000,  1.000 
442.100,  1.004 
442.200,  1.001 
442.300,  1.004 
442.400,  1.004 
442.500,  1.004 
442.600,  1.003 
442.700,  1.004 
442.800,  0.982 
442.900,  1.004 
443.000,  1.003 
443.100,  1.001 
443.200,  1.000 
443.300,  1.003 
443.400,  0.969 
443.500,  1.001 
443.600,  0.994 
443.700,  0.991 
443.800,  1.003 
443.900,  1.003 
444.000,  1.003 
444.100,  1.002 
444.200,  1.002 
444.300,  1.002 
444.400,  0.974 
444.500,  0.998 
444.600,  0.996 
444.700,  1.002 
444.800,  1.000 
444.900,  1.001 
445.000,  0.993 
445.100,  0.997 
445.200,  0.990 
445.300,  1.000 
445.400,  1.002 
445.500,  0.990 
445.600,  1.001 
445.700,  1.001 
445.800,  1.002 
445.900,  1.001 
446.000,  1.001 
446.100,  0.998 
446.200,  0.992 
446.300,  1.001 
446.400,  0.996 
446.500,  1.000 
446.600,  0.999 
446.700,  1.000 
446.800,  0.986 
446.900,  0.984 
447.000,  0.998 
447.100,  0.945 
447.200,  0.948 
447.300,  0.998 
447.400,  0.998 
447.500,  0.999 
447.600,  0.998 
447.700,  1.000 
447.800,  1.000 
447.900,  0.997 
448.000,  0.995 
448.100,  0.734 
448.200,  0.984 
448.300,  0.998 
448.400,  0.999 
448.500,  1.000 
448.600,  0.999 
448.700,  0.997 
448.800,  0.993 
448.900,  0.991 
449.000,  1.000 
449.100,  0.966 
449.200,  0.998 
449.300,  0.998 
449.400,  0.996 
449.500,  0.999 
449.600,  1.000 
449.700,  1.000 
449.800,  0.999 
449.900,  0.998 
450.000,  0.996 
450.100,  0.973 
450.200,  1.000 
450.300,  1.000 
450.400,  0.999 
450.500,  1.000 
450.600,  1.000 
450.700,  0.996 
450.800,  0.952 
450.900,  0.998 
451.000,  0.999 
451.100,  0.998 
451.200,  0.996 
451.300,  0.999 
451.400,  0.999 
451.500,  0.956 
451.600,  0.997 
451.700,  0.999 
451.800,  0.999 
451.900,  0.998 
452.000,  0.981 
452.100,  0.999 
452.200,  0.999 
452.300,  0.947 
452.400,  0.998 
452.500,  0.984 
452.600,  0.998 
452.700,  0.998 
452.800,  0.999 
452.900,  0.994 
453.000,  0.997 
453.100,  0.999 
453.200,  0.998 
453.300,  0.998 
453.400,  0.938 
453.500,  0.998 
453.600,  0.999 
453.700,  0.999 
453.800,  0.999 
453.900,  0.999 
454.000,  0.999 
454.100,  0.987 
454.200,  0.979 
454.300,  0.999 
454.400,  0.999 
454.500,  0.998 
454.600,  0.999 
454.700,  0.998 
454.800,  0.999 
454.900,  0.933 
455.000,  0.941 
455.100,  0.999 
455.200,  0.996 
455.300,  0.995 
455.400,  0.999 
455.500,  0.983 
455.600,  0.949 
455.700,  0.999 
455.800,  0.999 
455.900,  0.954 
456.000,  0.999 
456.100,  0.999 
456.200,  0.999 
456.300,  0.998 
456.400,  0.978 
456.500,  0.999 
456.600,  0.998 
456.700,  0.999 
456.800,  0.996 
456.900,  0.999 
457.000,  0.999 
457.100,  0.999 
457.200,  0.965 
457.300,  0.999 
457.400,  0.999 
457.500,  0.998 
457.600,  0.967 
457.700,  0.999 
457.800,  0.999 
457.900,  0.996 
458.000,  0.986 
458.100,  0.999 
458.200,  0.999 
458.300,  0.975 
458.400,  0.935 
458.500,  0.999 
458.600,  0.998 
458.700,  0.999 
458.800,  0.960 
458.900,  0.998 
459.000,  0.992 
459.100,  0.998 
459.200,  0.982 
459.300,  0.999 
459.400,  0.997 
459.500,  0.999 
459.600,  0.982 
459.700,  1.000 
459.800,  0.996 
459.900,  0.995 
460.000,  0.999 
460.100,  0.997 
460.200,  0.997 
460.300,  0.999 
460.400,  1.000 
460.500,  0.997 
460.600,  0.999 
460.700,  0.999 
460.800,  0.999 
460.900,  0.999 
461.000,  0.999 
461.100,  0.998 
461.200,  0.999 
461.300,  0.999 
461.400,  0.998 
461.500,  0.998 
461.600,  0.997 
461.700,  0.985 
461.800,  0.998 
461.900,  0.967 
462.000,  0.988 
462.100,  0.974 
462.200,  0.982 
462.300,  0.999 
462.400,  0.999 
462.500,  0.998 
462.600,  0.990 
462.700,  0.998 
462.800,  0.999 
462.900,  0.945 
463.000,  0.998 
463.100,  0.998 
463.200,  0.996 
463.300,  0.999 
463.400,  0.974 
463.500,  0.966 
463.600,  0.998 
463.700,  0.999 
463.800,  0.992 
463.900,  0.999 
464.000,  0.998 
464.100,  0.996 
464.200,  0.998 
464.300,  0.998 
464.400,  0.999 
464.500,  0.998 
464.600,  0.999 
464.700,  0.999 
464.800,  0.998 
464.900,  0.996 
465.000,  0.999 
465.100,  0.999 
465.200,  0.998 
465.300,  0.999 
465.400,  0.999 
465.500,  0.998 
465.600,  0.999 
465.700,  0.984 
465.800,  0.999 
465.900,  0.999 
466.000,  0.999 
466.100,  0.998 
466.200,  0.999 
466.300,  0.968 
466.400,  0.997 
466.500,  0.998 
466.600,  0.997 
466.700,  0.978 
466.800,  0.999 
466.900,  0.998 
467.000,  0.992 
467.100,  0.998 
467.200,  0.999 
467.300,  0.986 
467.400,  0.997 
467.500,  0.999 
467.600,  0.999 
467.700,  0.999 
467.800,  0.999 
467.900,  0.996 
468.000,  0.999 
468.100,  0.999 
468.200,  0.999 
468.300,  0.999 
468.400,  0.999 
468.500,  0.999 
468.600,  0.999 
468.700,  0.999 
468.800,  0.999 
468.900,  0.999 
469.000,  0.999 
469.100,  0.998 
469.200,  0.999 
469.300,  0.999 
469.400,  0.999 
469.500,  0.999 
469.600,  0.999 
469.700,  1.000 
469.800,  0.998 
469.900,  0.999 
470.000,  0.999 
470.100,  1.000 
470.200,  0.999 
470.300,  0.996 
470.400,  0.999 
470.500,  0.999 
470.600,  1.000 
470.700,  0.999 
470.800,  0.999 
470.900,  0.998 
471.000,  1.000 
471.100,  1.000 
471.200,  1.000 
471.300,  0.964 
471.400,  0.999 
471.500,  1.000 
471.600,  0.994 
471.700,  0.997 
471.800,  1.001 
471.900,  1.001 
472.000,  0.999 
472.100,  0.996 
472.200,  1.001 
472.300,  1.001 
472.400,  1.001 
472.500,  1.001 
472.600,  1.001 
472.700,  1.000 
472.800,  1.000 
472.900,  1.001 
473.000,  1.000 
473.100,  0.984 
473.200,  0.996 
473.300,  1.002 
473.400,  1.001 
473.500,  0.993 
473.600,  0.996 
473.700,  1.001 
473.800,  0.984 
473.900,  0.998 
474.000,  0.977 
474.100,  1.002 
474.200,  1.002 
474.300,  1.002 
474.400,  1.003 
474.500,  0.975 
474.600,  1.003 
474.700,  0.986 
474.800,  1.003 
474.900,  1.003 
475.000,  1.003 
475.100,  1.003 
475.200,  1.003 
475.300,  1.003 
475.400,  1.004 
475.500,  1.004 
475.600,  0.999 
475.700,  1.004 
475.800,  1.004 
475.900,  1.004 
476.000,  1.003 
476.100,  1.004 
476.200,  1.004 
476.300,  1.003 
476.400,  1.004 
476.500,  1.001 
476.600,  1.005 
476.700,  1.004 
476.800,  1.004 
476.900,  1.004 
477.000,  1.004 
477.100,  1.005 
477.200,  1.004 
477.300,  1.005 
477.400,  1.005 
477.500,  1.005 
477.600,  1.003 
477.700,  1.006 
477.800,  1.006 
477.900,  1.005 
478.000,  1.001 
478.100,  1.005 
478.200,  1.006 
478.300,  1.006 
478.400,  1.006 
478.500,  1.005 
478.600,  1.006 
478.700,  1.006 
478.800,  1.006 
478.900,  1.006 
479.000,  1.006 
479.100,  1.006 
479.200,  1.002 
479.300,  1.006 
479.400,  1.005 
479.500,  1.006 
479.600,  1.006 
479.700,  1.006 
479.800,  1.006 
479.900,  1.005 
480.000,  1.002 
480.100,  1.005 
480.200,  1.004 
480.300,  1.004 
480.400,  1.006 
480.500,  0.997 
480.600,  1.005 
480.700,  1.003 
480.800,  1.005 
480.900,  1.005 
481.000,  1.004 
481.100,  1.003 
481.200,  1.000 
481.300,  1.004 
481.400,  1.004 
481.500,  1.000 
481.600,  0.995 
481.700,  1.003 
481.800,  1.002 
481.900,  1.001 
482.000,  1.000 
482.100,  0.998 
482.200,  1.000 
482.300,  0.999 
482.400,  0.969 
482.500,  0.996 
482.600,  0.994 
482.700,  0.990 
482.800,  0.993 
482.900,  0.991 
483.000,  0.989 
483.100,  0.986 
483.200,  0.985 
483.300,  0.982 
483.400,  0.980 
483.500,  0.976 
483.600,  0.968 
483.700,  0.970 
483.800,  0.966 
483.900,  0.962 
484.000,  0.956 
484.100,  0.952 
484.200,  0.945 
484.300,  0.937 
484.400,  0.930 
484.500,  0.920 
484.600,  0.910 
484.700,  0.898 
484.800,  0.868 
484.900,  0.868 
485.000,  0.850 
485.100,  0.819 
485.200,  0.805 
485.300,  0.778 
485.400,  0.747 
485.500,  0.713 
485.600,  0.673 
485.700,  0.632 
485.800,  0.585 
485.900,  0.535 
486.000,  0.478 
486.100,  0.367 
486.200,  0.415 
486.300,  0.500 
486.400,  0.552 
486.500,  0.602 
486.600,  0.647 
486.700,  0.689 
486.800,  0.726 
486.900,  0.759 
487.000,  0.788 
487.100,  0.812 
487.200,  0.836 
487.300,  0.857 
487.400,  0.872 
487.500,  0.889 
487.600,  0.889 
487.700,  0.911 
487.800,  0.922 
487.900,  0.931 
488.000,  0.939 
488.100,  0.945 
488.200,  0.951 
488.300,  0.953 
488.400,  0.960 
488.500,  0.962 
488.600,  0.966 
488.700,  0.971 
488.800,  0.974 
488.900,  0.976 
489.000,  0.979 
489.100,  0.975 
489.200,  0.980 
489.300,  0.984 
489.400,  0.983 
489.500,  0.987 
489.600,  0.988 
489.700,  0.989 
489.800,  0.990 
489.900,  0.989 
490.000,  0.991 
490.100,  0.990 
490.200,  0.989 
490.300,  0.992 
490.400,  0.993 
490.500,  0.995 
490.600,  0.995 
490.700,  0.995 
490.800,  0.990 
490.900,  0.997 
491.000,  0.995 
491.100,  0.991 
491.200,  0.995 
491.300,  0.985 
491.400,  0.998 
491.500,  0.997 
491.600,  0.998 
491.700,  0.995 
491.800,  0.995 
491.900,  0.997 
492.000,  0.993 
492.100,  0.994 
492.200,  0.948 
492.300,  0.997 
492.400,  0.922 
492.500,  0.991 
492.600,  0.998 
492.700,  0.998 
492.800,  1.000 
492.900,  0.999 
493.000,  0.999 
493.100,  0.999 
493.200,  0.997 
493.300,  0.998 
493.400,  0.998 
493.500,  0.999 
493.600,  0.999 
493.700,  0.996 
493.800,  1.000 
493.900,  0.999 
494.000,  0.999 
494.100,  0.999 
494.200,  0.997 
494.300,  0.998 
494.400,  0.999 
494.500,  0.999 
494.600,  0.999 
494.700,  0.998 
494.800,  0.994 
494.900,  0.989 
495.000,  0.999 
495.100,  0.998 
495.200,  0.987 
495.300,  0.996 
495.400,  0.996 
495.500,  0.999 
495.600,  0.998 
495.700,  0.998 
495.800,  0.991 
495.900,  0.996 
496.000,  0.999 
496.100,  1.000 
496.200,  1.000 
496.300,  0.999 
496.400,  1.000 
496.500,  1.000 
496.600,  1.000 
496.700,  0.998 
496.800,  0.999 
496.900,  0.997 
497.000,  0.998 
497.100,  0.997 
497.200,  0.999 
497.300,  1.000 
497.400,  0.997 
497.500,  0.998 
497.600,  0.999 
497.700,  0.988 
497.800,  0.997 
497.900,  0.999 
498.000,  0.999 
498.100,  0.998 
498.200,  0.999 
498.300,  0.998 
498.400,  0.992 
498.500,  0.994 
498.600,  1.000 
498.700,  0.998 
498.800,  0.999 
498.900,  0.999 
499.000,  0.992 
499.100,  0.986 
499.200,  0.989 
499.300,  0.989 
499.400,  0.999 
499.500,  0.999 
499.600,  0.999 
499.700,  0.999 
499.800,  1.000 
499.900,  0.994 
