wavelength, flux 
380.000,  0.451 
380.100,  0.617 
380.200,  0.480 
380.300,  0.680 
380.400,  0.731 
380.500,  0.528 
380.600,  0.564 
380.700,  0.344 
380.800,  0.591 
380.900,  0.635 
381.000,  0.739 
381.100,  0.584 
381.200,  0.675 
381.300,  0.570 
381.400,  0.556 
381.500,  0.478 
381.600,  0.212 
381.700,  0.621 
381.800,  0.506 
381.900,  0.605 
382.000,  0.243 
382.100,  0.299 
382.200,  0.449 
382.300,  0.609 
382.400,  0.327 
382.500,  0.325 
382.600,  0.228 
382.700,  0.432 
382.800,  0.275 
382.900,  0.324 
383.000,  0.414 
383.100,  0.478 
383.200,  0.195 
383.300,  0.292 
383.400,  0.216 
383.500,  0.307 
383.600,  0.351 
383.700,  0.391 
383.800,  0.212 
383.900,  0.298 
384.000,  0.340 
384.100,  0.246 
384.200,  0.529 
384.300,  0.479 
384.400,  0.475 
384.500,  0.585 
384.600,  0.578 
384.700,  0.506 
384.800,  0.631 
384.900,  0.535 
385.000,  0.379 
385.100,  0.542 
385.200,  0.571 
385.300,  0.563 
385.400,  0.512 
385.500,  0.539 
385.600,  0.300 
385.700,  0.527 
385.800,  0.402 
385.900,  0.299 
386.000,  0.182 
386.100,  0.360 
386.200,  0.575 
386.300,  0.523 
386.400,  0.523 
386.500,  0.539 
386.600,  0.456 
386.700,  0.433 
386.800,  0.439 
386.900,  0.464 
387.000,  0.404 
387.100,  0.283 
387.200,  0.361 
387.300,  0.405 
387.400,  0.553 
387.500,  0.523 
387.600,  0.593 
387.700,  0.540 
387.800,  0.291 
387.900,  0.377 
388.000,  0.468 
388.100,  0.512 
388.200,  0.378 
388.300,  0.273 
388.400,  0.649 
388.500,  0.532 
388.600,  0.253 
388.700,  0.373 
388.800,  0.507 
388.900,  0.264 
389.000,  0.430 
389.100,  0.501 
389.200,  0.613 
389.300,  0.458 
389.400,  0.591 
389.500,  0.483 
389.600,  0.437 
389.700,  0.774 
389.800,  0.502 
389.900,  0.636 
390.000,  0.470 
390.100,  0.698 
390.200,  0.587 
390.300,  0.445 
390.400,  0.516 
390.500,  0.521 
390.600,  0.433 
390.700,  0.515 
390.800,  0.664 
390.900,  0.652 
391.000,  0.575 
391.100,  0.597 
391.200,  0.693 
391.300,  0.693 
391.400,  0.509 
391.500,  0.729 
391.600,  0.529 
391.700,  0.634 
391.800,  0.615 
391.900,  0.474 
392.000,  0.410 
392.100,  0.389 
392.200,  0.515 
392.300,  0.347 
392.400,  0.597 
392.500,  0.532 
392.600,  0.410 
392.700,  0.473 
392.800,  0.235 
392.900,  0.300 
393.000,  0.199 
393.100,  0.208 
393.200,  0.178 
393.300,  0.129 
393.400,  0.099 
393.500,  0.167 
393.600,  0.185 
393.700,  0.248 
393.800,  0.259 
393.900,  0.374 
394.000,  0.447 
394.100,  0.417 
394.200,  0.482 
394.300,  0.478 
394.400,  0.332 
394.500,  0.460 
394.600,  0.716 
394.700,  0.582 
394.800,  0.508 
394.900,  0.510 
395.000,  0.540 
395.100,  0.672 
395.200,  0.662 
395.300,  0.425 
395.400,  0.730 
395.500,  0.656 
395.600,  0.592 
395.700,  0.499 
395.800,  0.611 
395.900,  0.733 
396.000,  0.655 
396.100,  0.447 
396.200,  0.331 
396.300,  0.405 
396.400,  0.368 
396.500,  0.316 
396.600,  0.219 
396.700,  0.182 
396.800,  0.124 
396.900,  0.118 
397.000,  0.179 
397.100,  0.237 
397.200,  0.303 
397.300,  0.353 
397.400,  0.358 
397.500,  0.453 
397.600,  0.518 
397.700,  0.535 
397.800,  0.598 
397.900,  0.656 
398.000,  0.741 
398.100,  0.703 
398.200,  0.537 
398.300,  0.621 
398.400,  0.605 
398.500,  0.660 
398.600,  0.706 
398.700,  0.605 
398.800,  0.840 
398.900,  0.831 
399.000,  0.592 
399.100,  0.766 
399.200,  0.768 
399.300,  0.846 
399.400,  0.587 
399.500,  0.598 
399.600,  0.733 
399.700,  0.614 
399.800,  0.732 
399.900,  0.573 
400.000,  0.838 
400.100,  0.775 
400.200,  0.757 
400.300,  0.745 
400.400,  0.815 
400.500,  0.489 
400.600,  0.706 
400.700,  0.621 
400.800,  0.904 
400.900,  0.840 
401.000,  0.645 
401.100,  0.810 
401.200,  0.587 
401.300,  0.858 
401.400,  0.710 
401.500,  0.739 
401.600,  0.775 
401.700,  0.764 
401.800,  0.720 
401.900,  0.847 
402.000,  0.701 
402.100,  0.837 
402.200,  0.618 
402.300,  0.796 
402.400,  0.700 
402.500,  0.575 
402.600,  0.739 
402.700,  0.778 
402.800,  0.790 
402.900,  0.901 
403.000,  0.631 
403.100,  0.507 
403.200,  0.672 
403.300,  0.516 
403.400,  0.612 
403.500,  0.801 
403.600,  0.593 
403.700,  0.800 
403.800,  0.847 
403.900,  0.778 
404.000,  0.855 
404.100,  0.655 
404.200,  0.746 
404.300,  0.862 
404.400,  0.671 
404.500,  0.575 
404.600,  0.304 
404.700,  0.746 
404.800,  0.849 
404.900,  0.686 
405.000,  0.797 
405.100,  0.820 
405.200,  0.721 
405.300,  0.746 
405.400,  0.798 
405.500,  0.600 
405.600,  0.816 
405.700,  0.765 
405.800,  0.622 
405.900,  0.688 
406.000,  0.796 
406.100,  0.842 
406.200,  0.732 
406.300,  0.552 
406.400,  0.401 
406.500,  0.738 
406.600,  0.741 
406.700,  0.581 
406.800,  0.778 
406.900,  0.745 
407.000,  0.763 
407.100,  0.571 
407.200,  0.448 
407.300,  0.815 
407.400,  0.800 
407.500,  0.690 
407.600,  0.706 
407.700,  0.540 
407.800,  0.519 
407.900,  0.742 
408.000,  0.723 
408.100,  0.852 
408.200,  0.770 
408.300,  0.776 
408.400,  0.607 
408.500,  0.649 
408.600,  0.811 
408.700,  0.821 
408.800,  0.858 
408.900,  0.825 
409.000,  0.766 
409.100,  0.784 
409.200,  0.832 
409.300,  0.800 
409.400,  0.857 
409.500,  0.790 
409.600,  0.642 
409.700,  0.692 
409.800,  0.705 
409.900,  0.713 
410.000,  0.612 
410.100,  0.482 
410.200,  0.361 
410.300,  0.549 
410.400,  0.660 
410.500,  0.612 
410.600,  0.738 
410.700,  0.753 
410.800,  0.752 
410.900,  0.751 
411.000,  0.770 
411.100,  0.778 
411.200,  0.742 
411.300,  0.726 
411.400,  0.853 
411.500,  0.751 
411.600,  0.833 
411.700,  0.828 
411.800,  0.795 
411.900,  0.580 
412.000,  0.751 
412.100,  0.825 
412.200,  0.845 
412.300,  0.739 
412.400,  0.776 
412.500,  0.873 
412.600,  0.711 
412.700,  0.820 
412.800,  0.572 
412.900,  0.698 
413.000,  0.794 
413.100,  0.795 
413.200,  0.552 
413.300,  0.742 
413.400,  0.584 
413.500,  0.690 
413.600,  0.864 
413.700,  0.662 
413.800,  0.784 
413.900,  0.878 
414.000,  0.755 
414.100,  0.853 
414.200,  0.676 
414.300,  0.670 
414.400,  0.500 
414.500,  0.838 
414.600,  0.782 
414.700,  0.864 
414.800,  0.764 
414.900,  0.711 
415.000,  0.635 
415.100,  0.849 
415.200,  0.720 
415.300,  0.867 
415.400,  0.532 
415.500,  0.727 
415.600,  0.776 
415.700,  0.706 
415.800,  0.705 
415.900,  0.776 
416.000,  0.872 
416.100,  0.747 
416.200,  0.713 
416.300,  0.799 
416.400,  0.760 
416.500,  0.775 
416.600,  0.889 
416.700,  0.662 
416.800,  0.754 
416.900,  0.857 
417.000,  0.780 
417.100,  0.802 
417.200,  0.590 
417.300,  0.596 
417.400,  0.690 
417.500,  0.731 
417.600,  0.691 
417.700,  0.682 
417.800,  0.623 
417.900,  0.738 
418.000,  0.842 
418.100,  0.743 
418.200,  0.661 
418.300,  0.745 
418.400,  0.850 
418.500,  0.753 
418.600,  0.745 
418.700,  0.636 
418.800,  0.662 
418.900,  0.730 
419.000,  0.747 
419.100,  0.738 
419.200,  0.731 
419.300,  0.857 
419.400,  0.824 
419.500,  0.633 
419.600,  0.647 
419.700,  0.787 
419.800,  0.665 
419.900,  0.552 
420.000,  0.753 
420.100,  0.681 
420.200,  0.445 
420.300,  0.729 
420.400,  0.723 
420.500,  0.635 
420.600,  0.804 
420.700,  0.651 
420.800,  0.957 
420.900,  0.825 
421.000,  0.663 
421.100,  0.802 
421.200,  0.848 
421.300,  0.775 
421.400,  0.759 
421.500,  0.793 
421.600,  0.494 
421.700,  0.683 
421.800,  0.784 
421.900,  0.714 
422.000,  0.791 
422.100,  0.919 
422.200,  0.766 
422.300,  0.805 
422.400,  0.693 
422.500,  0.661 
422.600,  0.532 
422.700,  0.277 
422.800,  0.741 
422.900,  0.823 
423.000,  0.763 
423.100,  0.863 
423.200,  0.829 
423.300,  0.697 
423.400,  0.728 
423.500,  0.812 
423.600,  0.531 
423.700,  0.703 
423.800,  0.783 
423.900,  0.678 
424.000,  0.610 
424.100,  0.779 
424.200,  0.743 
424.300,  0.636 
424.400,  0.811 
424.500,  0.757 
424.600,  0.834 
424.700,  0.630 
424.800,  0.683 
424.900,  0.707 
425.000,  0.606 
425.100,  0.588 
425.200,  0.845 
425.300,  0.780 
425.400,  0.615 
425.500,  0.705 
425.600,  0.692 
425.700,  0.936 
425.800,  0.730 
425.900,  0.732 
426.000,  0.547 
426.100,  0.637 
426.200,  0.690 
426.300,  0.721 
426.400,  0.711 
426.500,  0.745 
426.600,  0.830 
426.700,  0.745 
426.800,  0.671 
426.900,  0.733 
427.000,  0.573 
427.100,  0.541 
427.200,  0.370 
427.300,  0.709 
427.400,  0.617 
427.500,  0.498 
427.600,  0.743 
427.700,  0.723 
427.800,  0.791 
427.900,  0.817 
428.000,  0.555 
428.100,  0.636 
428.200,  0.708 
428.300,  0.655 
428.400,  0.803 
428.500,  0.613 
428.600,  0.580 
428.700,  0.650 
428.800,  0.730 
428.900,  0.574 
429.000,  0.449 
429.100,  0.563 
429.200,  0.661 
429.300,  0.757 
429.400,  0.678 
429.500,  0.563 
429.600,  0.743 
429.700,  0.490 
429.800,  0.627 
429.900,  0.415 
430.000,  0.443 
430.100,  0.439 
430.200,  0.501 
430.300,  0.418 
430.400,  0.502 
430.500,  0.460 
430.600,  0.546 
430.700,  0.513 
430.800,  0.241 
430.900,  0.433 
431.000,  0.430 
431.100,  0.453 
431.200,  0.516 
431.300,  0.578 
431.400,  0.616 
431.500,  0.620 
431.600,  0.938 
431.700,  0.836 
431.800,  0.928 
431.900,  0.804 
432.000,  0.859 
432.100,  0.696 
432.200,  0.859 
432.300,  0.626 
432.400,  0.485 
432.500,  0.547 
432.600,  0.396 
432.700,  0.668 
432.800,  0.788 
432.900,  0.824 
433.000,  0.765 
433.100,  0.730 
433.200,  0.840 
433.300,  0.744 
433.400,  0.765 
433.500,  0.777 
433.600,  0.855 
433.700,  0.645 
433.800,  0.557 
433.900,  0.561 
434.000,  0.413 
434.100,  0.425 
434.200,  0.632 
434.300,  0.674 
434.400,  0.600 
434.500,  0.745 
434.600,  0.800 
434.700,  0.723 
434.800,  0.653 
434.900,  0.788 
435.000,  0.772 
435.100,  0.693 
435.200,  0.478 
435.300,  0.677 
435.400,  0.833 
435.500,  0.739 
435.600,  0.734 
435.700,  0.847 
435.800,  0.847 
435.900,  0.700 
436.000,  0.669 
436.100,  0.830 
436.200,  0.877 
436.300,  0.716 
436.400,  0.792 
436.500,  0.892 
436.600,  0.847 
436.700,  0.776 
436.800,  0.647 
436.900,  0.895 
437.000,  0.708 
437.100,  0.691 
437.200,  0.860 
437.300,  0.813 
437.400,  0.649 
437.500,  0.709 
437.600,  0.696 
437.700,  0.728 
437.800,  0.812 
437.900,  0.800 
438.000,  0.826 
438.100,  0.796 
438.200,  0.846 
438.300,  0.435 
438.400,  0.461 
438.500,  0.506 
438.600,  0.836 
438.700,  0.727 
438.800,  0.670 
438.900,  0.807 
439.000,  0.647 
439.100,  0.699 
439.200,  0.726 
439.300,  0.803 
439.400,  0.717 
439.500,  0.624 
439.600,  0.757 
439.700,  0.789 
439.800,  0.758 
439.900,  0.831 
440.000,  0.596 
440.100,  0.677 
440.200,  0.839 
440.300,  0.790 
440.400,  0.757 
440.500,  0.523 
440.600,  0.853 
440.700,  0.823 
440.800,  0.595 
440.900,  0.751 
441.000,  0.805 
441.100,  0.830 
441.200,  0.819 
441.300,  0.895 
441.400,  0.775 
441.500,  0.606 
441.600,  0.831 
441.700,  0.733 
441.800,  0.757 
441.900,  0.880 
442.000,  0.862 
442.100,  0.827 
442.200,  0.721 
442.300,  0.781 
442.400,  0.786 
442.500,  0.831 
442.600,  0.807 
442.700,  0.765 
442.800,  0.886 
442.900,  0.892 
443.000,  0.743 
443.100,  0.798 
443.200,  0.883 
443.300,  0.779 
443.400,  0.839 
443.500,  0.682 
443.600,  0.735 
443.700,  0.896 
443.800,  0.833 
443.900,  0.921 
444.000,  0.836 
444.100,  0.800 
444.200,  0.705 
444.300,  0.708 
444.400,  0.690 
444.500,  0.877 
444.600,  0.862 
444.700,  0.813 
444.800,  0.833 
444.900,  0.856 
445.000,  0.758 
445.100,  0.842 
445.200,  0.868 
445.300,  0.764 
445.400,  0.810 
445.500,  0.558 
445.600,  0.697 
445.700,  0.768 
445.800,  0.747 
445.900,  0.719 
446.000,  0.814 
446.100,  0.713 
446.200,  0.644 
446.300,  0.871 
446.400,  0.884 
446.500,  0.772 
446.600,  0.850 
446.700,  0.762 
446.800,  0.854 
446.900,  0.696 
447.000,  0.745 
447.100,  0.791 
447.200,  0.879 
447.300,  0.840 
447.400,  0.879 
447.500,  0.924 
447.600,  0.760 
447.700,  0.947 
447.800,  0.918 
447.900,  0.930 
448.000,  0.748 
448.100,  0.775 
448.200,  0.737 
448.300,  0.798 
448.400,  0.780 
448.500,  0.929 
448.600,  0.872 
448.700,  0.844 
448.800,  0.804 
448.900,  0.825 
449.000,  0.808 
449.100,  0.774 
449.200,  0.927 
449.300,  0.866 
449.400,  0.850 
449.500,  0.784 
449.600,  0.826 
449.700,  0.825 
449.800,  0.889 
449.900,  0.795 
450.000,  0.895 
450.100,  0.812 
450.200,  0.873 
450.300,  0.967 
450.400,  0.943 
450.500,  0.929 
450.600,  0.936 
450.700,  0.890 
450.800,  0.872 
450.900,  0.951 
451.000,  0.957 
451.100,  0.904 
451.200,  0.918 
451.300,  0.888 
451.400,  0.908 
451.500,  0.841 
451.600,  0.877 
451.700,  0.919 
451.800,  0.733 
451.900,  0.955 
452.000,  0.833 
452.100,  0.942 
452.200,  0.913 
452.300,  0.740 
452.400,  0.953 
452.500,  0.723 
452.600,  0.852 
452.700,  0.750 
452.800,  0.853 
452.900,  0.651 
453.000,  0.919 
453.100,  0.706 
453.200,  0.898 
453.300,  0.845 
453.400,  0.767 
453.500,  0.828 
453.600,  0.674 
453.700,  0.939 
453.800,  0.897 
453.900,  0.909 
454.000,  0.901 
454.100,  0.772 
454.200,  0.853 
454.300,  0.942 
454.400,  0.881 
454.500,  0.761 
454.600,  0.852 
454.700,  0.834 
454.800,  0.847 
454.900,  0.797 
455.000,  0.743 
455.100,  0.960 
455.200,  0.864 
455.300,  0.938 
455.400,  0.794 
455.500,  0.819 
455.600,  0.737 
455.700,  0.930 
455.800,  0.922 
455.900,  0.882 
456.000,  0.890 
456.100,  0.912 
456.200,  0.963 
456.300,  0.950 
456.400,  0.829 
456.500,  0.848 
456.600,  0.856 
456.700,  0.916 
456.800,  0.918 
456.900,  0.877 
457.000,  0.915 
457.100,  0.817 
457.200,  0.709 
457.300,  0.915 
457.400,  0.948 
457.500,  0.901 
457.600,  0.869 
457.700,  0.922 
457.800,  0.891 
457.900,  0.835 
458.000,  0.795 
458.100,  0.776 
458.200,  0.861 
458.300,  0.840 
458.400,  0.788 
458.500,  0.872 
458.600,  0.738 
458.700,  0.914 
458.800,  0.834 
458.900,  0.885 
459.000,  0.848 
459.100,  0.842 
459.200,  0.831 
459.300,  0.823 
459.400,  0.875 
459.500,  0.836 
459.600,  0.779 
459.700,  0.888 
459.800,  0.809 
459.900,  0.936 
460.000,  0.845 
460.100,  0.711 
460.200,  0.778 
460.300,  0.808 
460.400,  0.944 
460.500,  0.806 
460.600,  0.916 
460.700,  0.930 
460.800,  0.882 
460.900,  0.909 
461.000,  0.937 
461.100,  0.806 
461.200,  0.923 
461.300,  0.771 
461.400,  0.851 
461.500,  0.949 
461.600,  0.811 
461.700,  0.845 
461.800,  0.885 
461.900,  0.754 
462.000,  0.879 
462.100,  0.923 
462.200,  0.873 
462.300,  0.862 
462.400,  0.971 
462.500,  0.886 
462.600,  0.821 
462.700,  0.895 
462.800,  0.953 
462.900,  0.855 
463.000,  0.897 
463.100,  0.928 
463.200,  0.950 
463.300,  0.837 
463.400,  0.818 
463.500,  0.930 
463.600,  0.842 
463.700,  0.883 
463.800,  0.808 
463.900,  0.928 
464.000,  0.848 
464.100,  0.976 
464.200,  0.972 
464.300,  0.889 
464.400,  0.949 
464.500,  0.898 
464.600,  0.865 
464.700,  0.856 
464.800,  0.917 
464.900,  0.801 
465.000,  0.921 
465.100,  0.884 
465.200,  0.877 
465.300,  0.933 
465.400,  0.901 
465.500,  0.826 
465.600,  0.834 
465.700,  0.831 
465.800,  0.958 
465.900,  0.932 
466.000,  0.974 
466.100,  0.938 
466.200,  0.901 
466.300,  0.896 
466.400,  0.917 
466.500,  0.881 
466.600,  0.889 
466.700,  0.755 
466.800,  0.695 
466.900,  0.830 
467.000,  0.863 
467.100,  0.970 
467.200,  0.962 
467.300,  0.807 
467.400,  0.973 
467.500,  0.817 
467.600,  0.903 
467.700,  0.931 
467.800,  0.914 
467.900,  0.807 
468.000,  0.840 
468.100,  0.902 
468.200,  0.819 
468.300,  0.932 
468.400,  0.956 
468.500,  0.823 
468.600,  0.844 
468.700,  0.916 
468.800,  0.935 
468.900,  0.923 
469.000,  0.844 
469.100,  0.801 
469.200,  0.951 
469.300,  0.944 
469.400,  0.938 
469.500,  0.916 
469.600,  0.945 
469.700,  0.916 
469.800,  0.895 
469.900,  0.844 
470.000,  0.942 
470.100,  0.866 
470.200,  0.854 
470.300,  0.770 
470.400,  0.876 
470.500,  0.888 
470.600,  0.935 
470.700,  0.801 
470.800,  0.890 
470.900,  0.818 
471.000,  0.787 
471.100,  0.921 
471.200,  0.943 
471.300,  0.956 
471.400,  0.824 
471.500,  0.910 
471.600,  0.878 
471.700,  0.955 
471.800,  0.930 
471.900,  0.938 
472.000,  0.958 
472.100,  0.900 
472.200,  0.869 
472.300,  0.887 
472.400,  0.925 
472.500,  0.972 
472.600,  0.959 
472.700,  0.814 
472.800,  0.867 
472.900,  0.834 
473.000,  0.852 
473.100,  0.871 
473.200,  0.782 
473.300,  0.905 
473.400,  0.861 
473.500,  0.964 
473.600,  0.882 
473.700,  0.796 
473.800,  0.940 
473.900,  0.886 
474.000,  0.881 
474.100,  0.928 
474.200,  0.891 
474.300,  0.885 
474.400,  0.950 
474.500,  0.901 
474.600,  0.881 
474.700,  0.977 
474.800,  0.922 
474.900,  0.983 
475.000,  0.913 
475.100,  0.973 
475.200,  0.876 
475.300,  0.977 
475.400,  0.876 
475.500,  0.913 
475.600,  0.862 
475.700,  0.916 
475.800,  0.847 
475.900,  0.909 
476.000,  0.957 
476.100,  0.936 
476.200,  0.851 
476.300,  0.893 
476.400,  0.867 
476.500,  0.928 
476.600,  0.819 
476.700,  0.907 
476.800,  0.862 
476.900,  0.926 
477.000,  0.921 
477.100,  0.955 
477.200,  0.919 
477.300,  0.839 
477.400,  0.967 
477.500,  0.982 
477.600,  0.863 
477.700,  0.990 
477.800,  0.978 
477.900,  0.962 
478.000,  0.907 
478.100,  0.955 
478.200,  0.934 
478.300,  0.857 
478.400,  0.948 
478.500,  0.964 
478.600,  0.855 
478.700,  0.855 
478.800,  0.945 
478.900,  0.802 
479.000,  0.878 
479.100,  0.930 
479.200,  0.864 
479.300,  0.911 
479.400,  0.962 
479.500,  0.975 
479.600,  0.929 
479.700,  0.957 
479.800,  0.880 
479.900,  0.883 
480.000,  0.930 
480.100,  0.860 
480.200,  0.913 
480.300,  0.917 
480.400,  0.977 
480.500,  0.843 
480.600,  0.955 
480.700,  0.908 
480.800,  0.892 
480.900,  0.900 
481.000,  0.925 
481.100,  0.899 
481.200,  0.891 
481.300,  0.881 
481.400,  0.943 
481.500,  0.938 
481.600,  0.946 
481.700,  0.929 
481.800,  0.824 
481.900,  0.967 
482.000,  0.893 
482.100,  0.916 
482.200,  0.962 
482.300,  0.870 
482.400,  0.833 
482.500,  0.935 
482.600,  0.942 
482.700,  0.948 
482.800,  0.970 
482.900,  0.832 
483.000,  0.970 
483.100,  0.895 
483.200,  0.934 
483.300,  0.866 
483.400,  0.950 
483.500,  0.925 
483.600,  0.818 
483.700,  0.944 
483.800,  0.900 
483.900,  0.858 
484.000,  0.708 
484.100,  0.875 
484.200,  0.900 
484.300,  0.810 
484.400,  0.900 
484.500,  0.947 
484.600,  0.880 
484.700,  0.903 
484.800,  0.880 
484.900,  0.870 
485.000,  0.943 
485.100,  0.908 
485.200,  0.865 
485.300,  0.854 
485.400,  0.895 
485.500,  0.774 
485.600,  0.731 
485.700,  0.837 
485.800,  0.819 
485.900,  0.747 
486.000,  0.616 
486.100,  0.427 
486.200,  0.557 
486.300,  0.731 
486.400,  0.670 
486.500,  0.815 
486.600,  0.757 
486.700,  0.857 
486.800,  0.804 
486.900,  0.858 
487.000,  0.866 
487.100,  0.678 
487.200,  0.737 
487.300,  0.871 
487.400,  0.880 
487.500,  0.893 
487.600,  0.780 
487.700,  0.933 
487.800,  0.716 
487.900,  0.918 
488.000,  0.941 
488.100,  0.922 
488.200,  0.781 
488.300,  0.969 
488.400,  0.908 
488.500,  0.826 
488.600,  0.873 
488.700,  0.760 
488.800,  0.900 
488.900,  0.786 
489.000,  0.956 
489.100,  0.611 
489.200,  0.856 
489.300,  0.888 
489.400,  0.922 
489.500,  0.955 
489.600,  0.942 
489.700,  0.948 
489.800,  0.977 
489.900,  0.977 
490.000,  0.859 
490.100,  0.954 
490.200,  0.862 
490.300,  0.786 
490.400,  0.891 
490.500,  0.970 
490.600,  0.978 
490.700,  0.933 
490.800,  0.875 
490.900,  0.920 
491.000,  0.803 
491.100,  0.850 
491.200,  0.850 
491.300,  0.940 
491.400,  0.874 
491.500,  0.916 
491.600,  0.956 
491.700,  0.900 
491.800,  0.841 
491.900,  0.726 
492.000,  0.793 
492.100,  0.798 
492.200,  0.863 
492.300,  0.980 
492.400,  0.837 
492.500,  0.765 
492.600,  0.924 
492.700,  0.890 
492.800,  0.943 
492.900,  0.984 
493.000,  0.924 
493.100,  0.973 
493.200,  0.970 
493.300,  0.838 
493.400,  0.800 
493.500,  0.954 
493.600,  0.853 
493.700,  0.907 
493.800,  0.885 
493.900,  0.756 
494.000,  0.813 
494.100,  0.934 
494.200,  0.885 
494.300,  0.899 
494.400,  0.959 
494.500,  0.952 
494.600,  0.825 
494.700,  0.964 
494.800,  0.939 
494.900,  0.917 
495.000,  0.918 
495.100,  0.970 
495.200,  0.972 
495.300,  0.910 
495.400,  0.969 
495.500,  0.862 
495.600,  0.947 
495.700,  0.733 
495.800,  0.701 
495.900,  0.964 
496.000,  0.979 
496.100,  0.981 
496.200,  0.947 
496.300,  0.903 
496.400,  0.983 
496.500,  0.884 
496.600,  0.859 
496.700,  0.967 
496.800,  0.836 
496.900,  0.931 
497.000,  0.876 
497.100,  0.897 
497.200,  0.960 
497.300,  0.881 
497.400,  0.972 
497.500,  0.950 
497.600,  0.924 
497.700,  0.948 
497.800,  0.925 
497.900,  0.833 
498.000,  0.834 
498.100,  0.901 
498.200,  0.751 
498.300,  0.727 
498.400,  0.766 
498.500,  0.845 
498.600,  0.830 
498.700,  0.940 
498.800,  0.922 
498.900,  0.869 
499.000,  0.975 
499.100,  0.809 
499.200,  0.976 
499.300,  0.923 
499.400,  0.772 
499.500,  0.971 
499.600,  0.939 
499.700,  0.876 
499.800,  0.900 
499.900,  0.877 
