wavelength, flux 
380.000,  0.230 
380.100,  0.470 
380.200,  0.365 
380.300,  0.496 
380.400,  0.568 
380.500,  0.326 
380.600,  0.339 
380.700,  0.157 
380.800,  0.370 
380.900,  0.406 
381.000,  0.521 
381.100,  0.351 
381.200,  0.458 
381.300,  0.311 
381.400,  0.313 
381.500,  0.200 
381.600,  0.087 
381.700,  0.273 
381.800,  0.230 
381.900,  0.237 
382.000,  0.085 
382.100,  0.106 
382.200,  0.177 
382.300,  0.235 
382.400,  0.106 
382.500,  0.107 
382.600,  0.080 
382.700,  0.153 
382.800,  0.106 
382.900,  0.142 
383.000,  0.205 
383.100,  0.212 
383.200,  0.098 
383.300,  0.136 
383.400,  0.085 
383.500,  0.171 
383.600,  0.233 
383.700,  0.197 
383.800,  0.101 
383.900,  0.136 
384.000,  0.131 
384.100,  0.095 
384.200,  0.244 
384.300,  0.238 
384.400,  0.262 
384.500,  0.298 
384.600,  0.307 
384.700,  0.226 
384.800,  0.316 
384.900,  0.246 
385.000,  0.132 
385.100,  0.229 
385.200,  0.296 
385.300,  0.230 
385.400,  0.179 
385.500,  0.225 
385.600,  0.097 
385.700,  0.158 
385.800,  0.134 
385.900,  0.098 
386.000,  0.052 
386.100,  0.107 
386.200,  0.236 
386.300,  0.273 
386.400,  0.250 
386.500,  0.239 
386.600,  0.192 
386.700,  0.238 
386.800,  0.195 
386.900,  0.212 
387.000,  0.183 
387.100,  0.099 
387.200,  0.156 
387.300,  0.197 
387.400,  0.325 
387.500,  0.285 
387.600,  0.332 
387.700,  0.273 
387.800,  0.106 
387.900,  0.144 
388.000,  0.221 
388.100,  0.252 
388.200,  0.181 
388.300,  0.121 
388.400,  0.474 
388.500,  0.284 
388.600,  0.080 
388.700,  0.131 
388.800,  0.298 
388.900,  0.215 
389.000,  0.356 
389.100,  0.419 
389.200,  0.560 
389.300,  0.352 
389.400,  0.436 
389.500,  0.291 
389.600,  0.201 
389.700,  0.573 
389.800,  0.284 
389.900,  0.346 
390.000,  0.164 
390.100,  0.475 
390.200,  0.387 
390.300,  0.210 
390.400,  0.354 
390.500,  0.330 
390.600,  0.220 
390.700,  0.306 
390.800,  0.502 
390.900,  0.513 
391.000,  0.432 
391.100,  0.440 
391.200,  0.549 
391.300,  0.553 
391.400,  0.387 
391.500,  0.579 
391.600,  0.383 
391.700,  0.415 
391.800,  0.443 
391.900,  0.284 
392.000,  0.167 
392.100,  0.193 
392.200,  0.271 
392.300,  0.126 
392.400,  0.355 
392.500,  0.337 
392.600,  0.252 
392.700,  0.267 
392.800,  0.108 
392.900,  0.179 
393.000,  0.099 
393.100,  0.131 
393.200,  0.123 
393.300,  0.081 
393.400,  0.060 
393.500,  0.113 
393.600,  0.125 
393.700,  0.176 
393.800,  0.184 
393.900,  0.263 
394.000,  0.302 
394.100,  0.259 
394.200,  0.314 
394.300,  0.283 
394.400,  0.141 
394.500,  0.272 
394.600,  0.509 
394.700,  0.393 
394.800,  0.313 
394.900,  0.343 
395.000,  0.376 
395.100,  0.513 
395.200,  0.509 
395.300,  0.305 
395.400,  0.585 
395.500,  0.503 
395.600,  0.418 
395.700,  0.310 
395.800,  0.405 
395.900,  0.557 
396.000,  0.449 
396.100,  0.213 
396.200,  0.159 
396.300,  0.239 
396.400,  0.235 
396.500,  0.218 
396.600,  0.146 
396.700,  0.123 
396.800,  0.079 
396.900,  0.072 
397.000,  0.123 
397.100,  0.163 
397.200,  0.213 
397.300,  0.241 
397.400,  0.256 
397.500,  0.321 
397.600,  0.381 
397.700,  0.387 
397.800,  0.419 
397.900,  0.499 
398.000,  0.606 
398.100,  0.557 
398.200,  0.393 
398.300,  0.492 
398.400,  0.451 
398.500,  0.522 
398.600,  0.576 
398.700,  0.495 
398.800,  0.759 
398.900,  0.730 
399.000,  0.396 
399.100,  0.655 
399.200,  0.640 
399.300,  0.728 
399.400,  0.457 
399.500,  0.473 
399.600,  0.611 
399.700,  0.448 
399.800,  0.563 
399.900,  0.431 
400.000,  0.748 
400.100,  0.685 
400.200,  0.649 
400.300,  0.639 
400.400,  0.671 
400.500,  0.294 
400.600,  0.515 
400.700,  0.485 
400.800,  0.821 
400.900,  0.724 
401.000,  0.503 
401.100,  0.687 
401.200,  0.489 
401.300,  0.769 
401.400,  0.566 
401.500,  0.619 
401.600,  0.672 
401.700,  0.630 
401.800,  0.600 
401.900,  0.739 
402.000,  0.583 
402.100,  0.758 
402.200,  0.450 
402.300,  0.724 
402.400,  0.572 
402.500,  0.418 
402.600,  0.600 
402.700,  0.632 
402.800,  0.711 
402.900,  0.803 
403.000,  0.419 
403.100,  0.238 
403.200,  0.471 
403.300,  0.212 
403.400,  0.343 
403.500,  0.519 
403.600,  0.460 
403.700,  0.673 
403.800,  0.751 
403.900,  0.658 
404.000,  0.722 
404.100,  0.502 
404.200,  0.576 
404.300,  0.699 
404.400,  0.415 
404.500,  0.263 
404.600,  0.117 
404.700,  0.398 
404.800,  0.613 
404.900,  0.530 
405.000,  0.670 
405.100,  0.684 
405.200,  0.609 
405.300,  0.597 
405.400,  0.732 
405.500,  0.400 
405.600,  0.721 
405.700,  0.629 
405.800,  0.435 
405.900,  0.527 
406.000,  0.654 
406.100,  0.687 
406.200,  0.527 
406.300,  0.266 
406.400,  0.173 
406.500,  0.497 
406.600,  0.550 
406.700,  0.412 
406.800,  0.614 
406.900,  0.604 
407.000,  0.590 
407.100,  0.294 
407.200,  0.192 
407.300,  0.599 
407.400,  0.623 
407.500,  0.493 
407.600,  0.561 
407.700,  0.361 
407.800,  0.402 
407.900,  0.616 
408.000,  0.571 
408.100,  0.738 
408.200,  0.641 
408.300,  0.641 
408.400,  0.437 
408.500,  0.481 
408.600,  0.717 
408.700,  0.741 
408.800,  0.782 
408.900,  0.753 
409.000,  0.655 
409.100,  0.678 
409.200,  0.733 
409.300,  0.708 
409.400,  0.789 
409.500,  0.643 
409.600,  0.468 
409.700,  0.575 
409.800,  0.615 
409.900,  0.660 
410.000,  0.555 
410.100,  0.465 
410.200,  0.395 
410.300,  0.527 
410.400,  0.607 
410.500,  0.499 
410.600,  0.680 
410.700,  0.638 
410.800,  0.598 
410.900,  0.667 
411.000,  0.627 
411.100,  0.635 
411.200,  0.536 
411.300,  0.594 
411.400,  0.707 
411.500,  0.597 
411.600,  0.655 
411.700,  0.666 
411.800,  0.594 
411.900,  0.388 
412.000,  0.588 
412.100,  0.657 
412.200,  0.663 
412.300,  0.585 
412.400,  0.619 
412.500,  0.760 
412.600,  0.560 
412.700,  0.657 
412.800,  0.377 
412.900,  0.566 
413.000,  0.618 
413.100,  0.592 
413.200,  0.285 
413.300,  0.476 
413.400,  0.361 
413.500,  0.472 
413.600,  0.701 
413.700,  0.445 
413.800,  0.606 
413.900,  0.668 
414.000,  0.558 
414.100,  0.651 
414.200,  0.439 
414.300,  0.330 
414.400,  0.214 
414.500,  0.551 
414.600,  0.565 
414.700,  0.666 
414.800,  0.532 
414.900,  0.534 
415.000,  0.422 
415.100,  0.656 
415.200,  0.523 
415.300,  0.664 
415.400,  0.346 
415.500,  0.491 
415.600,  0.597 
415.700,  0.488 
415.800,  0.449 
415.900,  0.640 
416.000,  0.665 
416.100,  0.600 
416.200,  0.546 
416.300,  0.628 
416.400,  0.584 
416.500,  0.518 
416.600,  0.681 
416.700,  0.421 
416.800,  0.539 
416.900,  0.656 
417.000,  0.584 
417.100,  0.630 
417.200,  0.393 
417.300,  0.427 
417.400,  0.522 
417.500,  0.494 
417.600,  0.442 
417.700,  0.542 
417.800,  0.464 
417.900,  0.559 
418.000,  0.601 
418.100,  0.508 
418.200,  0.441 
418.300,  0.557 
418.400,  0.705 
418.500,  0.535 
418.600,  0.542 
418.700,  0.394 
418.800,  0.448 
418.900,  0.559 
419.000,  0.551 
419.100,  0.540 
419.200,  0.502 
419.300,  0.698 
419.400,  0.608 
419.500,  0.419 
419.600,  0.419 
419.700,  0.464 
419.800,  0.446 
419.900,  0.325 
420.000,  0.534 
420.100,  0.448 
420.200,  0.209 
420.300,  0.473 
420.400,  0.511 
420.500,  0.525 
420.600,  0.676 
420.700,  0.509 
420.800,  0.844 
420.900,  0.696 
421.000,  0.445 
421.100,  0.610 
421.200,  0.653 
421.300,  0.541 
421.400,  0.540 
421.500,  0.539 
421.600,  0.316 
421.700,  0.547 
421.800,  0.605 
421.900,  0.570 
422.000,  0.651 
422.100,  0.789 
422.200,  0.572 
422.300,  0.629 
422.400,  0.497 
422.500,  0.411 
422.600,  0.215 
422.700,  0.119 
422.800,  0.393 
422.900,  0.610 
423.000,  0.590 
423.100,  0.745 
423.200,  0.646 
423.300,  0.540 
423.400,  0.564 
423.500,  0.674 
423.600,  0.355 
423.700,  0.531 
423.800,  0.631 
423.900,  0.483 
424.000,  0.466 
424.100,  0.635 
424.200,  0.588 
424.300,  0.517 
424.400,  0.684 
424.500,  0.660 
424.600,  0.744 
424.700,  0.507 
424.800,  0.491 
424.900,  0.543 
425.000,  0.336 
425.100,  0.301 
425.200,  0.642 
425.300,  0.611 
425.400,  0.317 
425.500,  0.419 
425.600,  0.520 
425.700,  0.825 
425.800,  0.626 
425.900,  0.548 
426.000,  0.363 
426.100,  0.410 
426.200,  0.542 
426.300,  0.566 
426.400,  0.562 
426.500,  0.615 
426.600,  0.685 
426.700,  0.596 
426.800,  0.510 
426.900,  0.563 
427.000,  0.351 
427.100,  0.283 
427.200,  0.155 
427.300,  0.421 
427.400,  0.385 
427.500,  0.231 
427.600,  0.547 
427.700,  0.552 
427.800,  0.684 
427.900,  0.685 
428.000,  0.393 
428.100,  0.469 
428.200,  0.528 
428.300,  0.449 
428.400,  0.670 
428.500,  0.471 
428.600,  0.422 
428.700,  0.536 
428.800,  0.600 
428.900,  0.385 
429.000,  0.247 
429.100,  0.417 
429.200,  0.488 
429.300,  0.604 
429.400,  0.443 
429.500,  0.427 
429.600,  0.596 
429.700,  0.387 
429.800,  0.466 
429.900,  0.251 
430.000,  0.294 
430.100,  0.308 
430.200,  0.360 
430.300,  0.292 
430.400,  0.384 
430.500,  0.316 
430.600,  0.363 
430.700,  0.280 
430.800,  0.132 
430.900,  0.262 
431.000,  0.278 
431.100,  0.303 
431.200,  0.346 
431.300,  0.421 
431.400,  0.495 
431.500,  0.448 
431.600,  0.858 
431.700,  0.767 
431.800,  0.851 
431.900,  0.664 
432.000,  0.744 
432.100,  0.576 
432.200,  0.764 
432.300,  0.494 
432.400,  0.317 
432.500,  0.317 
432.600,  0.185 
432.700,  0.454 
432.800,  0.641 
432.900,  0.685 
433.000,  0.630 
433.100,  0.623 
433.200,  0.778 
433.300,  0.633 
433.400,  0.671 
433.500,  0.701 
433.600,  0.901 
433.700,  0.567 
433.800,  0.508 
433.900,  0.515 
434.000,  0.466 
434.100,  0.471 
434.200,  0.654 
434.300,  0.652 
434.400,  0.535 
434.500,  0.688 
434.600,  0.741 
434.700,  0.636 
434.800,  0.497 
434.900,  0.670 
435.000,  0.644 
435.100,  0.545 
435.200,  0.332 
435.300,  0.501 
435.400,  0.711 
435.500,  0.585 
435.600,  0.578 
435.700,  0.745 
435.800,  0.753 
435.900,  0.544 
436.000,  0.532 
436.100,  0.697 
436.200,  0.780 
436.300,  0.551 
436.400,  0.672 
436.500,  0.802 
436.600,  0.747 
436.700,  0.635 
436.800,  0.503 
436.900,  0.828 
437.000,  0.575 
437.100,  0.538 
437.200,  0.729 
437.300,  0.684 
437.400,  0.516 
437.500,  0.621 
437.600,  0.565 
437.700,  0.589 
437.800,  0.698 
437.900,  0.659 
438.000,  0.709 
438.100,  0.613 
438.200,  0.620 
438.300,  0.219 
438.400,  0.227 
438.500,  0.328 
438.600,  0.667 
438.700,  0.590 
438.800,  0.520 
438.900,  0.669 
439.000,  0.468 
439.100,  0.586 
439.200,  0.568 
439.300,  0.678 
439.400,  0.577 
439.500,  0.512 
439.600,  0.647 
439.700,  0.638 
439.800,  0.684 
439.900,  0.695 
440.000,  0.483 
440.100,  0.524 
440.200,  0.743 
440.300,  0.628 
440.400,  0.499 
440.500,  0.278 
440.600,  0.650 
440.700,  0.674 
440.800,  0.442 
440.900,  0.635 
441.000,  0.686 
441.100,  0.746 
441.200,  0.713 
441.300,  0.801 
441.400,  0.634 
441.500,  0.386 
441.600,  0.695 
441.700,  0.590 
441.800,  0.685 
441.900,  0.788 
442.000,  0.734 
442.100,  0.744 
442.200,  0.560 
442.300,  0.631 
442.400,  0.648 
442.500,  0.702 
442.600,  0.620 
442.700,  0.665 
442.800,  0.796 
442.900,  0.802 
443.000,  0.578 
443.100,  0.710 
443.200,  0.803 
443.300,  0.660 
443.400,  0.702 
443.500,  0.485 
443.600,  0.573 
443.700,  0.808 
443.800,  0.707 
443.900,  0.850 
444.000,  0.709 
444.100,  0.660 
444.200,  0.573 
444.300,  0.576 
444.400,  0.582 
444.500,  0.833 
444.600,  0.785 
444.700,  0.688 
444.800,  0.719 
444.900,  0.756 
445.000,  0.669 
445.100,  0.750 
445.200,  0.771 
445.300,  0.620 
445.400,  0.680 
445.500,  0.381 
445.600,  0.547 
445.700,  0.653 
445.800,  0.625 
445.900,  0.591 
446.000,  0.673 
446.100,  0.597 
446.200,  0.507 
446.300,  0.776 
446.400,  0.816 
446.500,  0.655 
446.600,  0.725 
446.700,  0.642 
446.800,  0.758 
446.900,  0.605 
447.000,  0.604 
447.100,  0.705 
447.200,  0.792 
447.300,  0.740 
447.400,  0.786 
447.500,  0.803 
447.600,  0.648 
447.700,  0.869 
447.800,  0.847 
447.900,  0.881 
448.000,  0.606 
448.100,  0.757 
448.200,  0.632 
448.300,  0.682 
448.400,  0.664 
448.500,  0.853 
448.600,  0.810 
448.700,  0.749 
448.800,  0.734 
448.900,  0.729 
449.000,  0.725 
449.100,  0.712 
449.200,  0.856 
449.300,  0.795 
449.400,  0.741 
449.500,  0.652 
449.600,  0.690 
449.700,  0.723 
449.800,  0.801 
449.900,  0.679 
450.000,  0.834 
450.100,  0.763 
450.200,  0.767 
450.300,  0.933 
450.400,  0.894 
450.500,  0.865 
450.600,  0.878 
450.700,  0.793 
450.800,  0.854 
450.900,  0.894 
451.000,  0.923 
451.100,  0.834 
451.200,  0.844 
451.300,  0.808 
451.400,  0.811 
451.500,  0.776 
451.600,  0.804 
451.700,  0.856 
451.800,  0.612 
451.900,  0.883 
452.000,  0.783 
452.100,  0.893 
452.200,  0.860 
452.300,  0.678 
452.400,  0.896 
452.500,  0.633 
452.600,  0.725 
452.700,  0.609 
452.800,  0.735 
452.900,  0.540 
453.000,  0.829 
453.100,  0.546 
453.200,  0.823 
453.300,  0.733 
453.400,  0.728 
453.500,  0.689 
453.600,  0.506 
453.700,  0.896 
453.800,  0.827 
453.900,  0.821 
454.000,  0.820 
454.100,  0.624 
454.200,  0.758 
454.300,  0.882 
454.400,  0.810 
454.500,  0.619 
454.600,  0.741 
454.700,  0.756 
454.800,  0.772 
454.900,  0.748 
455.000,  0.712 
455.100,  0.930 
455.200,  0.781 
455.300,  0.866 
455.400,  0.707 
455.500,  0.718 
455.600,  0.667 
455.700,  0.885 
455.800,  0.853 
455.900,  0.878 
456.000,  0.806 
456.100,  0.827 
456.200,  0.939 
456.300,  0.871 
456.400,  0.792 
456.500,  0.766 
456.600,  0.789 
456.700,  0.849 
456.800,  0.907 
456.900,  0.805 
457.000,  0.833 
457.100,  0.716 
457.200,  0.619 
457.300,  0.856 
457.400,  0.901 
457.500,  0.827 
457.600,  0.819 
457.700,  0.817 
457.800,  0.808 
457.900,  0.727 
458.000,  0.669 
458.100,  0.673 
458.200,  0.786 
458.300,  0.819 
458.400,  0.773 
458.500,  0.783 
458.600,  0.582 
458.700,  0.837 
458.800,  0.791 
458.900,  0.818 
459.000,  0.822 
459.100,  0.768 
459.200,  0.787 
459.300,  0.750 
459.400,  0.789 
459.500,  0.741 
459.600,  0.714 
459.700,  0.789 
459.800,  0.714 
459.900,  0.876 
460.000,  0.788 
460.100,  0.576 
460.200,  0.706 
460.300,  0.689 
460.400,  0.888 
460.500,  0.730 
460.600,  0.835 
460.700,  0.858 
460.800,  0.830 
460.900,  0.883 
461.000,  0.900 
461.100,  0.722 
461.200,  0.888 
461.300,  0.674 
461.400,  0.776 
461.500,  0.908 
461.600,  0.714 
461.700,  0.785 
461.800,  0.838 
461.900,  0.689 
462.000,  0.786 
462.100,  0.883 
462.200,  0.785 
462.300,  0.761 
462.400,  0.931 
462.500,  0.832 
462.600,  0.731 
462.700,  0.829 
462.800,  0.915 
462.900,  0.818 
463.000,  0.847 
463.100,  0.874 
463.200,  0.904 
463.300,  0.735 
463.400,  0.770 
463.500,  0.876 
463.600,  0.783 
463.700,  0.798 
463.800,  0.702 
463.900,  0.862 
464.000,  0.720 
464.100,  0.923 
464.200,  0.944 
464.300,  0.843 
464.400,  0.894 
464.500,  0.843 
464.600,  0.746 
464.700,  0.770 
464.800,  0.847 
464.900,  0.720 
465.000,  0.837 
465.100,  0.808 
465.200,  0.797 
465.300,  0.871 
465.400,  0.833 
465.500,  0.752 
465.600,  0.727 
465.700,  0.792 
465.800,  0.906 
465.900,  0.884 
466.000,  0.950 
466.100,  0.887 
466.200,  0.837 
466.300,  0.823 
466.400,  0.858 
466.500,  0.818 
466.600,  0.806 
466.700,  0.687 
466.800,  0.568 
466.900,  0.743 
467.000,  0.835 
467.100,  0.938 
467.200,  0.910 
467.300,  0.707 
467.400,  0.941 
467.500,  0.691 
467.600,  0.840 
467.700,  0.862 
467.800,  0.845 
467.900,  0.697 
468.000,  0.765 
468.100,  0.824 
468.200,  0.713 
468.300,  0.873 
468.400,  0.888 
468.500,  0.730 
468.600,  0.787 
468.700,  0.829 
468.800,  0.844 
468.900,  0.854 
469.000,  0.768 
469.100,  0.714 
469.200,  0.900 
469.300,  0.880 
469.400,  0.873 
469.500,  0.849 
469.600,  0.903 
469.700,  0.813 
469.800,  0.842 
469.900,  0.729 
470.000,  0.879 
470.100,  0.778 
470.200,  0.790 
470.300,  0.658 
470.400,  0.816 
470.500,  0.836 
470.600,  0.874 
470.700,  0.703 
470.800,  0.811 
470.900,  0.755 
471.000,  0.658 
471.100,  0.866 
471.200,  0.876 
471.300,  0.911 
471.400,  0.730 
471.500,  0.807 
471.600,  0.825 
471.700,  0.920 
471.800,  0.873 
471.900,  0.881 
472.000,  0.937 
472.100,  0.849 
472.200,  0.835 
472.300,  0.769 
472.400,  0.855 
472.500,  0.934 
472.600,  0.905 
472.700,  0.723 
472.800,  0.758 
472.900,  0.732 
473.000,  0.774 
473.100,  0.802 
473.200,  0.685 
473.300,  0.833 
473.400,  0.775 
473.500,  0.903 
473.600,  0.803 
473.700,  0.684 
473.800,  0.866 
473.900,  0.826 
474.000,  0.800 
474.100,  0.861 
474.200,  0.815 
474.300,  0.808 
474.400,  0.887 
474.500,  0.787 
474.600,  0.817 
474.700,  0.930 
474.800,  0.872 
474.900,  0.952 
475.000,  0.832 
475.100,  0.925 
475.200,  0.814 
475.300,  0.924 
475.400,  0.792 
475.500,  0.851 
475.600,  0.798 
475.700,  0.859 
475.800,  0.756 
475.900,  0.820 
476.000,  0.887 
476.100,  0.864 
476.200,  0.769 
476.300,  0.841 
476.400,  0.819 
476.500,  0.873 
476.600,  0.712 
476.700,  0.815 
476.800,  0.775 
476.900,  0.854 
477.000,  0.859 
477.100,  0.878 
477.200,  0.826 
477.300,  0.757 
477.400,  0.917 
477.500,  0.941 
477.600,  0.807 
477.700,  0.954 
477.800,  0.921 
477.900,  0.890 
478.000,  0.869 
478.100,  0.900 
478.200,  0.865 
478.300,  0.748 
478.400,  0.884 
478.500,  0.899 
478.600,  0.778 
478.700,  0.794 
478.800,  0.875 
478.900,  0.708 
479.000,  0.790 
479.100,  0.852 
479.200,  0.812 
479.300,  0.846 
479.400,  0.895 
479.500,  0.937 
479.600,  0.857 
479.700,  0.905 
479.800,  0.815 
479.900,  0.813 
480.000,  0.856 
480.100,  0.791 
480.200,  0.831 
480.300,  0.865 
480.400,  0.942 
480.500,  0.776 
480.600,  0.910 
480.700,  0.846 
480.800,  0.814 
480.900,  0.819 
481.000,  0.882 
481.100,  0.844 
481.200,  0.837 
481.300,  0.813 
481.400,  0.880 
481.500,  0.869 
481.600,  0.871 
481.700,  0.884 
481.800,  0.770 
481.900,  0.919 
482.000,  0.833 
482.100,  0.866 
482.200,  0.912 
482.300,  0.789 
482.400,  0.770 
482.500,  0.892 
482.600,  0.899 
482.700,  0.868 
482.800,  0.913 
482.900,  0.743 
483.000,  0.941 
483.100,  0.844 
483.200,  0.808 
483.300,  0.795 
483.400,  0.899 
483.500,  0.873 
483.600,  0.741 
483.700,  0.894 
483.800,  0.820 
483.900,  0.789 
484.000,  0.604 
484.100,  0.800 
484.200,  0.835 
484.300,  0.705 
484.400,  0.821 
484.500,  0.921 
484.600,  0.802 
484.700,  0.850 
484.800,  0.871 
484.900,  0.831 
485.000,  0.936 
485.100,  0.873 
485.200,  0.824 
485.300,  0.837 
485.400,  0.901 
485.500,  0.759 
485.600,  0.724 
485.700,  0.863 
485.800,  0.863 
485.900,  0.783 
486.000,  0.645 
486.100,  0.552 
486.200,  0.660 
486.300,  0.807 
486.400,  0.667 
486.500,  0.826 
486.600,  0.775 
486.700,  0.865 
486.800,  0.719 
486.900,  0.858 
487.000,  0.823 
487.100,  0.547 
487.200,  0.588 
487.300,  0.823 
487.400,  0.855 
487.500,  0.815 
487.600,  0.722 
487.700,  0.910 
487.800,  0.577 
487.900,  0.866 
488.000,  0.892 
488.100,  0.862 
488.200,  0.672 
488.300,  0.950 
488.400,  0.883 
488.500,  0.762 
488.600,  0.801 
488.700,  0.670 
488.800,  0.805 
488.900,  0.687 
489.000,  0.880 
489.100,  0.411 
489.200,  0.727 
489.300,  0.822 
489.400,  0.897 
489.500,  0.916 
489.600,  0.904 
489.700,  0.909 
489.800,  0.948 
489.900,  0.941 
490.000,  0.800 
490.100,  0.896 
490.200,  0.806 
490.300,  0.692 
490.400,  0.812 
490.500,  0.928 
490.600,  0.952 
490.700,  0.854 
490.800,  0.793 
490.900,  0.848 
491.000,  0.727 
491.100,  0.803 
491.200,  0.773 
491.300,  0.893 
491.400,  0.807 
491.500,  0.862 
491.600,  0.918 
491.700,  0.851 
491.800,  0.769 
491.900,  0.562 
492.000,  0.616 
492.100,  0.648 
492.200,  0.769 
492.300,  0.946 
492.400,  0.837 
492.500,  0.666 
492.600,  0.856 
492.700,  0.811 
492.800,  0.864 
492.900,  0.949 
493.000,  0.874 
493.100,  0.942 
493.200,  0.955 
493.300,  0.754 
493.400,  0.722 
493.500,  0.902 
493.600,  0.789 
493.700,  0.863 
493.800,  0.772 
493.900,  0.596 
494.000,  0.640 
494.100,  0.872 
494.200,  0.805 
494.300,  0.839 
494.400,  0.934 
494.500,  0.920 
494.600,  0.758 
494.700,  0.931 
494.800,  0.880 
494.900,  0.851 
495.000,  0.871 
495.100,  0.944 
495.200,  0.946 
495.300,  0.850 
495.400,  0.916 
495.500,  0.779 
495.600,  0.882 
495.700,  0.556 
495.800,  0.529 
495.900,  0.898 
496.000,  0.928 
496.100,  0.942 
496.200,  0.897 
496.300,  0.848 
496.400,  0.921 
496.500,  0.795 
496.600,  0.758 
496.700,  0.893 
496.800,  0.757 
496.900,  0.863 
497.000,  0.814 
497.100,  0.828 
497.200,  0.915 
497.300,  0.803 
497.400,  0.907 
497.500,  0.887 
497.600,  0.866 
497.700,  0.915 
497.800,  0.833 
497.900,  0.733 
498.000,  0.741 
498.100,  0.830 
498.200,  0.618 
498.300,  0.613 
498.400,  0.676 
498.500,  0.747 
498.600,  0.721 
498.700,  0.898 
498.800,  0.829 
498.900,  0.780 
499.000,  0.924 
499.100,  0.702 
499.200,  0.928 
499.300,  0.880 
499.400,  0.536 
499.500,  0.868 
499.600,  0.869 
499.700,  0.789 
499.800,  0.840 
499.900,  0.796 
