wavelength, flux 
380.000,  0.173 
380.100,  0.383 
380.200,  0.408 
380.300,  0.576 
380.400,  0.575 
380.500,  0.346 
380.600,  0.396 
380.700,  0.128 
380.800,  0.373 
380.900,  0.393 
381.000,  0.543 
381.100,  0.388 
381.200,  0.426 
381.300,  0.214 
381.400,  0.274 
381.500,  0.165 
381.600,  0.080 
381.700,  0.211 
381.800,  0.167 
381.900,  0.161 
382.000,  0.065 
382.100,  0.079 
382.200,  0.134 
382.300,  0.142 
382.400,  0.071 
382.500,  0.077 
382.600,  0.061 
382.700,  0.124 
382.800,  0.096 
382.900,  0.118 
383.000,  0.172 
383.100,  0.194 
383.200,  0.095 
383.300,  0.119 
383.400,  0.071 
383.500,  0.153 
383.600,  0.194 
383.700,  0.188 
383.800,  0.100 
383.900,  0.127 
384.000,  0.108 
384.100,  0.076 
384.200,  0.218 
384.300,  0.241 
384.400,  0.287 
384.500,  0.291 
384.600,  0.329 
384.700,  0.272 
384.800,  0.360 
384.900,  0.240 
385.000,  0.110 
385.100,  0.229 
385.200,  0.283 
385.300,  0.241 
385.400,  0.219 
385.500,  0.157 
385.600,  0.060 
385.700,  0.094 
385.800,  0.092 
385.900,  0.073 
386.000,  0.032 
386.100,  0.086 
386.200,  0.147 
386.300,  0.178 
386.400,  0.168 
386.500,  0.157 
386.600,  0.161 
386.700,  0.249 
386.800,  0.226 
386.900,  0.298 
387.000,  0.259 
387.100,  0.224 
387.200,  0.164 
387.300,  0.139 
387.400,  0.254 
387.500,  0.226 
387.600,  0.217 
387.700,  0.182 
387.800,  0.072 
387.900,  0.081 
388.000,  0.207 
388.100,  0.244 
388.200,  0.210 
388.300,  0.179 
388.400,  0.223 
388.500,  0.123 
388.600,  0.048 
388.700,  0.071 
388.800,  0.137 
388.900,  0.185 
389.000,  0.226 
389.100,  0.306 
389.200,  0.416 
389.300,  0.287 
389.400,  0.234 
389.500,  0.144 
389.600,  0.096 
389.700,  0.252 
389.800,  0.160 
389.900,  0.131 
390.000,  0.075 
390.100,  0.198 
390.200,  0.247 
390.300,  0.141 
390.400,  0.252 
390.500,  0.202 
390.600,  0.143 
390.700,  0.160 
390.800,  0.367 
390.900,  0.422 
391.000,  0.403 
391.100,  0.360 
391.200,  0.358 
391.300,  0.407 
391.400,  0.314 
391.500,  0.441 
391.600,  0.335 
391.700,  0.250 
391.800,  0.295 
391.900,  0.165 
392.000,  0.086 
392.100,  0.120 
392.200,  0.141 
392.300,  0.066 
392.400,  0.155 
392.500,  0.172 
392.600,  0.164 
392.700,  0.136 
392.800,  0.062 
392.900,  0.102 
393.000,  0.054 
393.100,  0.077 
393.200,  0.067 
393.300,  0.033 
393.400,  0.020 
393.500,  0.057 
393.600,  0.079 
393.700,  0.108 
393.800,  0.125 
393.900,  0.163 
394.000,  0.179 
394.100,  0.146 
394.200,  0.141 
394.300,  0.100 
394.400,  0.044 
394.500,  0.098 
394.600,  0.171 
394.700,  0.204 
394.800,  0.157 
394.900,  0.162 
395.000,  0.247 
395.100,  0.342 
395.200,  0.329 
395.300,  0.252 
395.400,  0.376 
395.500,  0.315 
395.600,  0.169 
395.700,  0.160 
395.800,  0.121 
395.900,  0.157 
396.000,  0.114 
396.100,  0.056 
396.200,  0.053 
396.300,  0.090 
396.400,  0.105 
396.500,  0.125 
396.600,  0.097 
396.700,  0.071 
396.800,  0.032 
396.900,  0.032 
397.000,  0.073 
397.100,  0.102 
397.200,  0.141 
397.300,  0.158 
397.400,  0.186 
397.500,  0.229 
397.600,  0.281 
397.700,  0.252 
397.800,  0.303 
397.900,  0.364 
398.000,  0.454 
398.100,  0.316 
398.200,  0.156 
398.300,  0.387 
398.400,  0.311 
398.500,  0.436 
398.600,  0.474 
398.700,  0.441 
398.800,  0.613 
398.900,  0.412 
399.000,  0.145 
399.100,  0.438 
399.200,  0.514 
399.300,  0.596 
399.400,  0.409 
399.500,  0.375 
399.600,  0.537 
399.700,  0.360 
399.800,  0.240 
399.900,  0.208 
400.000,  0.559 
400.100,  0.648 
400.200,  0.556 
400.300,  0.588 
400.400,  0.489 
400.500,  0.176 
400.600,  0.341 
400.700,  0.460 
400.800,  0.673 
400.900,  0.379 
401.000,  0.443 
401.100,  0.590 
401.200,  0.456 
401.300,  0.704 
401.400,  0.510 
401.500,  0.570 
401.600,  0.636 
401.700,  0.628 
401.800,  0.471 
401.900,  0.686 
402.000,  0.563 
402.100,  0.615 
402.200,  0.406 
402.300,  0.614 
402.400,  0.319 
402.500,  0.260 
402.600,  0.475 
402.700,  0.484 
402.800,  0.536 
402.900,  0.421 
403.000,  0.148 
403.100,  0.076 
403.200,  0.159 
403.300,  0.067 
403.400,  0.105 
403.500,  0.170 
403.600,  0.277 
403.700,  0.469 
403.800,  0.591 
403.900,  0.528 
404.000,  0.549 
404.100,  0.344 
404.200,  0.405 
404.300,  0.467 
404.400,  0.238 
404.500,  0.155 
404.600,  0.079 
404.700,  0.205 
404.800,  0.359 
404.900,  0.340 
405.000,  0.529 
405.100,  0.567 
405.200,  0.540 
405.300,  0.552 
405.400,  0.618 
405.500,  0.297 
405.600,  0.589 
405.700,  0.482 
405.800,  0.328 
405.900,  0.413 
406.000,  0.451 
406.100,  0.459 
406.200,  0.318 
406.300,  0.156 
406.400,  0.104 
406.500,  0.267 
406.600,  0.441 
406.700,  0.319 
406.800,  0.415 
406.900,  0.476 
407.000,  0.419 
407.100,  0.195 
407.200,  0.116 
407.300,  0.349 
407.400,  0.450 
407.500,  0.376 
407.600,  0.451 
407.700,  0.260 
407.800,  0.242 
407.900,  0.389 
408.000,  0.451 
408.100,  0.654 
408.200,  0.529 
408.300,  0.437 
408.400,  0.367 
408.500,  0.429 
408.600,  0.679 
408.700,  0.623 
408.800,  0.742 
408.900,  0.715 
409.000,  0.608 
409.100,  0.581 
409.200,  0.618 
409.300,  0.610 
409.400,  0.706 
409.500,  0.439 
409.600,  0.254 
409.700,  0.366 
409.800,  0.394 
409.900,  0.461 
410.000,  0.308 
410.100,  0.273 
410.200,  0.262 
410.300,  0.378 
410.400,  0.389 
410.500,  0.353 
410.600,  0.518 
410.700,  0.421 
410.800,  0.373 
410.900,  0.492 
411.000,  0.436 
411.100,  0.374 
411.200,  0.238 
411.300,  0.386 
411.400,  0.320 
411.500,  0.308 
411.600,  0.367 
411.700,  0.504 
411.800,  0.367 
411.900,  0.298 
412.000,  0.439 
412.100,  0.442 
412.200,  0.506 
412.300,  0.370 
412.400,  0.489 
412.500,  0.676 
412.600,  0.489 
412.700,  0.494 
412.800,  0.239 
412.900,  0.454 
413.000,  0.368 
413.100,  0.245 
413.200,  0.140 
413.300,  0.246 
413.400,  0.283 
413.500,  0.372 
413.600,  0.458 
413.700,  0.314 
413.800,  0.354 
413.900,  0.533 
414.000,  0.390 
414.100,  0.477 
414.200,  0.191 
414.300,  0.099 
414.400,  0.108 
414.500,  0.293 
414.600,  0.369 
414.700,  0.458 
414.800,  0.303 
414.900,  0.480 
415.000,  0.294 
415.100,  0.447 
415.200,  0.428 
415.300,  0.476 
415.400,  0.354 
415.500,  0.339 
415.600,  0.473 
415.700,  0.290 
415.800,  0.447 
415.900,  0.573 
416.000,  0.415 
416.100,  0.543 
416.200,  0.385 
416.300,  0.594 
416.400,  0.432 
416.500,  0.226 
416.600,  0.401 
416.700,  0.293 
416.800,  0.405 
416.900,  0.430 
417.000,  0.339 
417.100,  0.348 
417.200,  0.143 
417.300,  0.286 
417.400,  0.312 
417.500,  0.239 
417.600,  0.289 
417.700,  0.467 
417.800,  0.345 
417.900,  0.492 
418.000,  0.473 
418.100,  0.397 
418.200,  0.319 
418.300,  0.420 
418.400,  0.483 
418.500,  0.294 
418.600,  0.385 
418.700,  0.263 
418.800,  0.291 
418.900,  0.362 
419.000,  0.400 
419.100,  0.330 
419.200,  0.367 
419.300,  0.577 
419.400,  0.440 
419.500,  0.372 
419.600,  0.336 
419.700,  0.343 
419.800,  0.213 
419.900,  0.191 
420.000,  0.277 
420.100,  0.230 
420.200,  0.126 
420.300,  0.249 
420.400,  0.265 
420.500,  0.386 
420.600,  0.410 
420.700,  0.334 
420.800,  0.492 
420.900,  0.451 
421.000,  0.257 
421.100,  0.398 
421.200,  0.359 
421.300,  0.313 
421.400,  0.372 
421.500,  0.308 
421.600,  0.163 
421.700,  0.317 
421.800,  0.217 
421.900,  0.240 
422.000,  0.226 
422.100,  0.183 
422.200,  0.145 
422.300,  0.127 
422.400,  0.104 
422.500,  0.080 
422.600,  0.051 
422.700,  0.028 
422.800,  0.070 
422.900,  0.096 
423.000,  0.119 
423.100,  0.151 
423.200,  0.154 
423.300,  0.195 
423.400,  0.224 
423.500,  0.239 
423.600,  0.209 
423.700,  0.272 
423.800,  0.343 
423.900,  0.301 
424.000,  0.291 
424.100,  0.409 
424.200,  0.366 
424.300,  0.409 
424.400,  0.472 
424.500,  0.472 
424.600,  0.513 
424.700,  0.309 
424.800,  0.360 
424.900,  0.406 
425.000,  0.222 
425.100,  0.149 
425.200,  0.237 
425.300,  0.199 
425.400,  0.078 
425.500,  0.117 
425.600,  0.253 
425.700,  0.381 
425.800,  0.364 
425.900,  0.418 
426.000,  0.228 
426.100,  0.249 
426.200,  0.309 
426.300,  0.360 
426.400,  0.473 
426.500,  0.534 
426.600,  0.414 
426.700,  0.397 
426.800,  0.389 
426.900,  0.332 
427.000,  0.274 
427.100,  0.161 
427.200,  0.096 
427.300,  0.184 
427.400,  0.148 
427.500,  0.075 
427.600,  0.214 
427.700,  0.302 
427.800,  0.389 
427.900,  0.400 
428.000,  0.348 
428.100,  0.376 
428.200,  0.353 
428.300,  0.186 
428.400,  0.430 
428.500,  0.323 
428.600,  0.329 
428.700,  0.378 
428.800,  0.260 
428.900,  0.135 
429.000,  0.088 
429.100,  0.165 
429.200,  0.317 
429.300,  0.368 
429.400,  0.267 
429.500,  0.438 
429.600,  0.389 
429.700,  0.436 
429.800,  0.365 
429.900,  0.139 
430.000,  0.227 
430.100,  0.204 
430.200,  0.235 
430.300,  0.241 
430.400,  0.387 
430.500,  0.349 
430.600,  0.197 
430.700,  0.206 
430.800,  0.096 
430.900,  0.221 
431.000,  0.298 
431.100,  0.461 
431.200,  0.445 
431.300,  0.357 
431.400,  0.461 
431.500,  0.301 
431.600,  0.664 
431.700,  0.727 
431.800,  0.521 
431.900,  0.326 
432.000,  0.626 
432.100,  0.394 
432.200,  0.533 
432.300,  0.489 
432.400,  0.390 
432.500,  0.195 
432.600,  0.117 
432.700,  0.306 
432.800,  0.458 
432.900,  0.635 
433.000,  0.540 
433.100,  0.565 
433.200,  0.674 
433.300,  0.571 
433.400,  0.596 
433.500,  0.717 
433.600,  0.847 
433.700,  0.451 
433.800,  0.379 
433.900,  0.420 
434.000,  0.378 
434.100,  0.514 
434.200,  0.699 
434.300,  0.617 
434.400,  0.450 
434.500,  0.483 
434.600,  0.669 
434.700,  0.512 
434.800,  0.547 
434.900,  0.672 
435.000,  0.739 
435.100,  0.423 
435.200,  0.297 
435.300,  0.424 
435.400,  0.610 
435.500,  0.545 
435.600,  0.649 
435.700,  0.684 
435.800,  0.641 
435.900,  0.537 
436.000,  0.482 
436.100,  0.584 
436.200,  0.695 
436.300,  0.580 
436.400,  0.695 
436.500,  0.793 
436.600,  0.653 
436.700,  0.681 
436.800,  0.442 
436.900,  0.704 
437.000,  0.583 
437.100,  0.402 
437.200,  0.609 
437.300,  0.564 
437.400,  0.481 
437.500,  0.481 
437.600,  0.276 
437.700,  0.480 
437.800,  0.586 
437.900,  0.382 
438.000,  0.528 
438.100,  0.426 
438.200,  0.389 
438.300,  0.166 
438.400,  0.145 
438.500,  0.238 
438.600,  0.473 
438.700,  0.520 
438.800,  0.447 
438.900,  0.513 
439.000,  0.391 
439.100,  0.599 
439.200,  0.531 
439.300,  0.605 
439.400,  0.529 
439.500,  0.422 
439.600,  0.581 
439.700,  0.699 
439.800,  0.641 
439.900,  0.652 
440.000,  0.497 
440.100,  0.439 
440.200,  0.664 
440.300,  0.563 
440.400,  0.323 
440.500,  0.170 
440.600,  0.433 
440.700,  0.525 
440.800,  0.249 
440.900,  0.529 
441.000,  0.644 
441.100,  0.627 
441.200,  0.616 
441.300,  0.703 
441.400,  0.486 
441.500,  0.244 
441.600,  0.546 
441.700,  0.514 
441.800,  0.619 
441.900,  0.712 
442.000,  0.634 
442.100,  0.648 
442.200,  0.440 
442.300,  0.488 
442.400,  0.478 
442.500,  0.397 
442.600,  0.357 
442.700,  0.313 
442.800,  0.547 
442.900,  0.675 
443.000,  0.485 
443.100,  0.591 
443.200,  0.665 
443.300,  0.523 
443.400,  0.393 
443.500,  0.168 
443.600,  0.268 
443.700,  0.661 
443.800,  0.591 
443.900,  0.761 
444.000,  0.626 
444.100,  0.577 
444.200,  0.431 
444.300,  0.521 
444.400,  0.490 
444.500,  0.778 
444.600,  0.775 
444.700,  0.633 
444.800,  0.552 
444.900,  0.613 
445.000,  0.551 
445.100,  0.618 
445.200,  0.613 
445.300,  0.482 
445.400,  0.332 
445.500,  0.148 
445.600,  0.249 
445.700,  0.381 
445.800,  0.467 
445.900,  0.416 
446.000,  0.468 
446.100,  0.453 
446.200,  0.265 
446.300,  0.642 
446.400,  0.697 
446.500,  0.548 
446.600,  0.542 
446.700,  0.527 
446.800,  0.654 
446.900,  0.550 
447.000,  0.532 
447.100,  0.626 
447.200,  0.779 
447.300,  0.679 
447.400,  0.704 
447.500,  0.633 
447.600,  0.514 
447.700,  0.712 
447.800,  0.806 
447.900,  0.807 
448.000,  0.539 
448.100,  0.577 
448.200,  0.437 
448.300,  0.576 
448.400,  0.646 
448.500,  0.765 
448.600,  0.734 
448.700,  0.691 
448.800,  0.671 
448.900,  0.623 
449.000,  0.516 
449.100,  0.716 
449.200,  0.763 
449.300,  0.708 
449.400,  0.605 
449.500,  0.510 
449.600,  0.506 
449.700,  0.398 
449.800,  0.662 
449.900,  0.632 
450.000,  0.756 
450.100,  0.717 
450.200,  0.659 
450.300,  0.868 
450.400,  0.844 
450.500,  0.801 
450.600,  0.714 
450.700,  0.684 
450.800,  0.801 
450.900,  0.787 
451.000,  0.804 
451.100,  0.712 
451.200,  0.695 
451.300,  0.554 
451.400,  0.659 
451.500,  0.713 
451.600,  0.756 
451.700,  0.766 
451.800,  0.425 
451.900,  0.712 
452.000,  0.700 
452.100,  0.785 
452.200,  0.734 
452.300,  0.483 
452.400,  0.772 
452.500,  0.565 
452.600,  0.550 
452.700,  0.349 
452.800,  0.565 
452.900,  0.451 
453.000,  0.627 
453.100,  0.389 
453.200,  0.638 
453.300,  0.343 
453.400,  0.461 
453.500,  0.240 
453.600,  0.221 
453.700,  0.726 
453.800,  0.723 
453.900,  0.772 
454.000,  0.662 
454.100,  0.512 
454.200,  0.622 
454.300,  0.779 
454.400,  0.689 
454.500,  0.421 
454.600,  0.433 
454.700,  0.650 
454.800,  0.616 
454.900,  0.501 
455.000,  0.681 
455.100,  0.840 
455.200,  0.597 
455.300,  0.638 
455.400,  0.555 
455.500,  0.509 
455.600,  0.526 
455.700,  0.784 
455.800,  0.717 
455.900,  0.794 
456.000,  0.687 
456.100,  0.743 
456.200,  0.815 
456.300,  0.708 
456.400,  0.713 
456.500,  0.711 
456.600,  0.702 
456.700,  0.806 
456.800,  0.828 
456.900,  0.755 
457.000,  0.666 
457.100,  0.513 
457.200,  0.543 
457.300,  0.779 
457.400,  0.802 
457.500,  0.707 
457.600,  0.752 
457.700,  0.641 
457.800,  0.628 
457.900,  0.482 
458.000,  0.389 
458.100,  0.440 
458.200,  0.592 
458.300,  0.795 
458.400,  0.710 
458.500,  0.614 
458.600,  0.261 
458.700,  0.659 
458.800,  0.729 
458.900,  0.714 
459.000,  0.737 
459.100,  0.598 
459.200,  0.633 
459.300,  0.624 
459.400,  0.603 
459.500,  0.689 
459.600,  0.676 
459.700,  0.684 
459.800,  0.611 
459.900,  0.751 
460.000,  0.658 
460.100,  0.434 
460.200,  0.652 
460.300,  0.498 
460.400,  0.785 
460.500,  0.674 
460.600,  0.698 
460.700,  0.700 
460.800,  0.766 
460.900,  0.817 
461.000,  0.773 
461.100,  0.540 
461.200,  0.779 
461.300,  0.563 
461.400,  0.696 
461.500,  0.815 
461.600,  0.478 
461.700,  0.574 
461.800,  0.770 
461.900,  0.660 
462.000,  0.705 
462.100,  0.783 
462.200,  0.651 
462.300,  0.597 
462.400,  0.752 
462.500,  0.755 
462.600,  0.491 
462.700,  0.677 
462.800,  0.732 
462.900,  0.656 
463.000,  0.740 
463.100,  0.762 
463.200,  0.729 
463.300,  0.593 
463.400,  0.681 
463.500,  0.710 
463.600,  0.696 
463.700,  0.658 
463.800,  0.573 
463.900,  0.656 
464.000,  0.466 
464.100,  0.708 
464.200,  0.828 
464.300,  0.748 
464.400,  0.728 
464.500,  0.665 
464.600,  0.356 
464.700,  0.601 
464.800,  0.705 
464.900,  0.607 
465.000,  0.713 
465.100,  0.570 
465.200,  0.433 
465.300,  0.704 
465.400,  0.682 
465.500,  0.612 
465.600,  0.561 
465.700,  0.669 
465.800,  0.825 
465.900,  0.783 
466.000,  0.821 
466.100,  0.783 
466.200,  0.747 
466.300,  0.730 
466.400,  0.702 
466.500,  0.719 
466.600,  0.709 
466.700,  0.576 
466.800,  0.424 
466.900,  0.599 
467.000,  0.709 
467.100,  0.785 
467.200,  0.730 
467.300,  0.577 
467.400,  0.780 
467.500,  0.522 
467.600,  0.768 
467.700,  0.716 
467.800,  0.732 
467.900,  0.580 
468.000,  0.663 
468.100,  0.663 
468.200,  0.448 
468.300,  0.689 
468.400,  0.703 
468.500,  0.531 
468.600,  0.662 
468.700,  0.615 
468.800,  0.707 
468.900,  0.664 
469.000,  0.653 
469.100,  0.528 
469.200,  0.700 
469.300,  0.711 
469.400,  0.718 
469.500,  0.739 
469.600,  0.774 
469.700,  0.624 
469.800,  0.737 
469.900,  0.478 
470.000,  0.710 
470.100,  0.633 
470.200,  0.714 
470.300,  0.495 
470.400,  0.713 
470.500,  0.716 
470.600,  0.700 
470.700,  0.609 
470.800,  0.642 
470.900,  0.599 
471.000,  0.463 
471.100,  0.677 
471.200,  0.643 
471.300,  0.628 
471.400,  0.547 
471.500,  0.529 
471.600,  0.555 
471.700,  0.645 
471.800,  0.530 
471.900,  0.662 
472.000,  0.638 
472.100,  0.609 
472.200,  0.654 
472.300,  0.514 
472.400,  0.590 
472.500,  0.716 
472.600,  0.660 
472.700,  0.619 
472.800,  0.506 
472.900,  0.544 
473.000,  0.616 
473.100,  0.503 
473.200,  0.600 
473.300,  0.605 
473.400,  0.521 
473.500,  0.634 
473.600,  0.582 
473.700,  0.518 
473.800,  0.574 
473.900,  0.633 
474.000,  0.669 
474.100,  0.564 
474.200,  0.563 
474.300,  0.550 
474.400,  0.594 
474.500,  0.572 
474.600,  0.544 
474.700,  0.633 
474.800,  0.660 
474.900,  0.652 
475.000,  0.651 
475.100,  0.657 
475.200,  0.578 
475.300,  0.549 
475.400,  0.495 
475.500,  0.587 
475.600,  0.522 
475.700,  0.532 
475.800,  0.481 
475.900,  0.424 
476.000,  0.497 
476.100,  0.506 
476.200,  0.400 
476.300,  0.466 
476.400,  0.476 
476.500,  0.509 
476.600,  0.358 
476.700,  0.461 
476.800,  0.440 
476.900,  0.487 
477.000,  0.433 
477.100,  0.453 
477.200,  0.455 
477.300,  0.433 
477.400,  0.546 
477.500,  0.532 
477.600,  0.475 
477.700,  0.517 
477.800,  0.461 
477.900,  0.442 
478.000,  0.501 
478.100,  0.546 
478.200,  0.495 
478.300,  0.439 
478.400,  0.505 
478.500,  0.479 
478.600,  0.448 
478.700,  0.483 
478.800,  0.463 
478.900,  0.428 
479.000,  0.503 
479.100,  0.533 
479.200,  0.525 
479.300,  0.558 
479.400,  0.531 
479.500,  0.626 
479.600,  0.589 
479.700,  0.664 
479.800,  0.580 
479.900,  0.578 
480.000,  0.603 
480.100,  0.550 
480.200,  0.571 
480.300,  0.616 
480.400,  0.673 
480.500,  0.565 
480.600,  0.628 
480.700,  0.569 
480.800,  0.593 
480.900,  0.590 
481.000,  0.625 
481.100,  0.550 
481.200,  0.579 
481.300,  0.607 
481.400,  0.643 
481.500,  0.623 
481.600,  0.559 
481.700,  0.705 
481.800,  0.571 
481.900,  0.649 
482.000,  0.591 
482.100,  0.641 
482.200,  0.626 
482.300,  0.558 
482.400,  0.509 
482.500,  0.659 
482.600,  0.616 
482.700,  0.577 
482.800,  0.619 
482.900,  0.563 
483.000,  0.734 
483.100,  0.590 
483.200,  0.521 
483.300,  0.607 
483.400,  0.658 
483.500,  0.654 
483.600,  0.558 
483.700,  0.651 
483.800,  0.610 
483.900,  0.598 
484.000,  0.493 
484.100,  0.467 
484.200,  0.623 
484.300,  0.549 
484.400,  0.545 
484.500,  0.769 
484.600,  0.656 
484.700,  0.726 
484.800,  0.705 
484.900,  0.642 
485.000,  0.753 
485.100,  0.668 
485.200,  0.662 
485.300,  0.705 
485.400,  0.796 
485.500,  0.598 
485.600,  0.583 
485.700,  0.741 
485.800,  0.755 
485.900,  0.679 
486.000,  0.587 
486.100,  0.677 
486.200,  0.703 
486.300,  0.743 
486.400,  0.620 
486.500,  0.659 
486.600,  0.673 
486.700,  0.719 
486.800,  0.585 
486.900,  0.794 
487.000,  0.613 
487.100,  0.447 
487.200,  0.445 
487.300,  0.680 
487.400,  0.670 
487.500,  0.621 
487.600,  0.608 
487.700,  0.698 
487.800,  0.309 
487.900,  0.668 
488.000,  0.731 
488.100,  0.621 
488.200,  0.517 
488.300,  0.787 
488.400,  0.757 
488.500,  0.564 
488.600,  0.715 
488.700,  0.525 
488.800,  0.583 
488.900,  0.555 
489.000,  0.699 
489.100,  0.341 
489.200,  0.589 
489.300,  0.679 
489.400,  0.710 
489.500,  0.717 
489.600,  0.719 
489.700,  0.708 
489.800,  0.756 
489.900,  0.786 
490.000,  0.566 
490.100,  0.624 
490.200,  0.679 
490.300,  0.593 
490.400,  0.548 
490.500,  0.712 
490.600,  0.757 
490.700,  0.636 
490.800,  0.694 
490.900,  0.651 
491.000,  0.622 
491.100,  0.650 
491.200,  0.570 
491.300,  0.769 
491.400,  0.595 
491.500,  0.648 
491.600,  0.765 
491.700,  0.714 
491.800,  0.639 
491.900,  0.433 
492.000,  0.437 
492.100,  0.473 
492.200,  0.535 
492.300,  0.717 
492.400,  0.792 
492.500,  0.579 
492.600,  0.695 
492.700,  0.604 
492.800,  0.587 
492.900,  0.685 
493.000,  0.737 
493.100,  0.804 
493.200,  0.792 
493.300,  0.678 
493.400,  0.517 
493.500,  0.585 
493.600,  0.643 
493.700,  0.747 
493.800,  0.517 
493.900,  0.407 
494.000,  0.391 
494.100,  0.615 
494.200,  0.531 
494.300,  0.623 
494.400,  0.770 
494.500,  0.710 
494.600,  0.659 
494.700,  0.711 
494.800,  0.526 
494.900,  0.577 
495.000,  0.668 
495.100,  0.794 
495.200,  0.789 
495.300,  0.636 
495.400,  0.571 
495.500,  0.473 
495.600,  0.495 
495.700,  0.314 
495.800,  0.327 
495.900,  0.522 
496.000,  0.535 
496.100,  0.495 
496.200,  0.552 
496.300,  0.567 
496.400,  0.483 
496.500,  0.422 
496.600,  0.456 
496.700,  0.440 
496.800,  0.552 
496.900,  0.497 
497.000,  0.504 
497.100,  0.537 
497.200,  0.598 
497.300,  0.509 
497.400,  0.457 
497.500,  0.508 
497.600,  0.548 
497.700,  0.686 
497.800,  0.542 
497.900,  0.371 
498.000,  0.442 
498.100,  0.447 
498.200,  0.281 
498.300,  0.432 
498.400,  0.518 
498.500,  0.448 
498.600,  0.445 
498.700,  0.681 
498.800,  0.519 
498.900,  0.455 
499.000,  0.469 
499.100,  0.292 
499.200,  0.613 
499.300,  0.580 
499.400,  0.270 
499.500,  0.448 
499.600,  0.480 
499.700,  0.515 
499.800,  0.623 
499.900,  0.422 
